channel,subject,count,mean,std,min,25%,50%,75%,max
Fp1,BR2_0000210#01,2743040,-11.71,78.1,-4990.69,-25.14,-14.41,-3.13,5012.52
Fp2,BR2_0000210#01,2743040,27.06,79.43,-4990.33,10.47,24.61,39.64,5012.34
F3,BR2_0000210#01,2743040,-88.3,74.92,-4991.04,-93.51,-89.03,-84.92,5010.37
F4,BR2_0000210#01,2743040,-58.15,75.8,-4990.15,-67.91,-58.79,-49.12,5011.09
F7,BR2_0000210#01,2743040,-95.08,76.73,-4992.3,-104.78,-96.01,-87.24,5008.94
F8,BR2_0000210#01,2743040,-99.66,92.16,-4987.29,-120.17,-101.74,-82.77,5026.48
Fz,BR2_0000210#01,2743040,-101.48,75.02,-5003.75,-106.39,-102.45,-98.16,5009.48
C3,BR2_0000210#01,2743040,-137.62,75.67,-4989.08,-144.15,-138.24,-132.88,5013.23
C4,BR2_0000210#01,2743040,-24.25,80.39,-4977.44,-44.29,-26.58,-6.53,5024.33
Cz,BR2_0000210#01,2743040,-28.0,80.28,-5117.92,-35.34,-28.72,-21.92,5864.0
T3,BR2_0000210#01,2743040,-177.31,80.99,-4984.96,-188.89,-179.76,-169.38,5029.7
T4,BR2_0000210#01,2743040,-108.48,96.88,-5011.27,-131.8,-113.01,-90.11,5008.04
T5,BR2_0000210#01,2743040,-118.54,79.85,-5069.43,-128.58,-120.35,-111.58,5612.03
T6,BR2_0000210#01,2743040,-150.05,154.3,-4984.96,-172.78,-157.21,-140.03,5648.53
P3,BR2_0000210#01,2743040,-99.44,75.68,-4984.78,-106.21,-100.48,-94.76,5016.46
P4,BR2_0000210#01,2743040,-81.7,76.76,-4991.58,-92.07,-82.59,-72.57,5011.62
Pz,BR2_0000210#01,2743040,-104.22,75.14,-4995.16,-111.04,-105.14,-98.87,5008.76
O1,BR2_0000210#01,2743040,-108.92,99.35,-4991.4,-122.85,-112.83,-102.1,5011.8
O2,BR2_0000210#01,2743040,-119.02,132.59,-4993.55,-147.91,-128.4,-107.11,5097.34
Fp1,BR2_0000215#01,46762496,615.96,1262.91,-5864.0,521.57,759.77,871.08,5864.0
Fp2,BR2_0000215#01,46762496,5.44,1272.02,-5864.0,-218.78,205.89,320.96,5864.0
F3,BR2_0000215#01,46762496,517.6,1260.03,-5864.0,427.08,650.78,760.3,5864.0
F4,BR2_0000215#01,46762496,521.7,1257.99,-5864.0,433.35,649.71,764.06,5864.0
F7,BR2_0000215#01,46762496,521.1,1260.25,-5864.0,418.49,663.84,768.18,5864.0
F8,BR2_0000215#01,46762496,523.83,1260.68,-5864.0,431.56,657.94,768.89,5864.0
Fz,BR2_0000215#01,46762496,523.52,1256.3,-5864.0,427.62,659.55,770.86,5864.0
C3,BR2_0000215#01,46762496,568.61,1261.14,-5864.0,475.58,705.18,814.17,5864.0
C4,BR2_0000215#01,46762496,515.32,1258.91,-5864.0,429.77,649.35,756.01,5864.0
Cz,BR2_0000215#01,46762496,162.19,1242.14,-5864.0,114.62,235.6,335.28,5864.0
T3,BR2_0000215#01,46762496,531.71,1260.28,-5864.0,442.12,664.02,773.72,5864.0
T4,BR2_0000215#01,46762496,-44.37,1246.31,-5864.0,-148.98,77.22,186.92,5864.0
T5,BR2_0000215#01,46762496,-246.76,1249.79,-5864.0,-401.13,-85.99,-6.35,5864.0
T6,BR2_0000215#01,46762496,311.29,1252.9,-5864.0,261.01,409.19,513.34,5864.0
P3,BR2_0000215#01,46762496,464.72,1255.95,-5864.0,386.1,566.49,692.3,5864.0
P4,BR2_0000215#01,46762496,518.39,1258.66,-5864.0,430.13,649.35,755.29,5864.0
Pz,BR2_0000215#01,46762496,159.41,2061.51,-5864.0,-615.17,651.67,857.66,5864.0
O1,BR2_0000215#01,46762496,-630.51,1254.72,-5864.0,-899.17,-632.71,-325.79,5864.0
O2,BR2_0000215#01,46762496,-284.22,1245.44,-5864.0,-397.02,-244.9,-110.15,5864.0
Fp1,BR2_0000276#01,6130944,248.71,119.68,-5557.8,236.13,262.26,272.46,987.22
Fp2,BR2_0000276#01,6130944,200.18,100.0,-5551.36,192.83,204.46,215.2,740.8
F3,BR2_0000276#01,6130944,120.69,65.46,-5517.0,106.57,121.42,139.14,560.76
F4,BR2_0000276#01,6130944,-184.35,161.88,-5010.73,-303.78,-205.89,-79.55,5549.75
F7,BR2_0000276#01,6130944,21.27,94.98,-5010.73,-36.42,52.7,77.94,5534.36
F8,BR2_0000276#01,6130944,98.45,56.74,-5527.38,85.45,94.76,104.78,592.26
Fz,BR2_0000276#01,6130944,59.54,64.23,-5864.0,37.49,59.68,81.34,370.53
C3,BR2_0000276#01,6130944,-401.58,139.24,-5010.73,-449.27,-432.45,-411.33,5544.02
C4,BR2_0000276#01,6130944,10.67,35.64,-5010.73,-7.43,6.35,29.62,5532.57
Cz,BR2_0000276#01,6130944,75.61,75.94,-5531.68,55.03,85.27,105.32,401.13
T3,BR2_0000276#01,6130944,158.63,86.46,-5511.99,154.89,160.44,165.8,593.16
T4,BR2_0000276#01,6130944,58.65,37.48,-5513.24,48.77,59.32,72.03,602.82
T5,BR2_0000276#01,6130944,35.14,39.73,-5512.71,31.23,41.07,45.19,1464.86
T6,BR2_0000276#01,6130944,148.01,89.81,-5525.23,133.77,155.25,172.6,717.17
P3,BR2_0000276#01,6130944,105.43,64.16,-5864.0,101.02,107.11,111.4,478.98
P4,BR2_0000276#01,6130944,-399.66,140.76,-5864.0,-479.34,-400.78,-333.49,5590.91
Pz,BR2_0000276#01,6130944,-28.31,50.09,-5010.73,-58.43,-21.92,5.64,782.31
O1,BR2_0000276#01,6130944,-62.62,50.41,-5010.73,-67.38,-59.5,-54.67,5535.61
O2,BR2_0000276#01,6130944,539.94,178.18,-5571.76,545.02,548.95,551.64,1860.18
Fp1,BR2_0000385#01,1215488,6.9,11.2,-225.04,0.98,6.89,12.8,307.72
Fp2,BR2_0000385#01,1215488,2.47,13.25,-178.69,-4.74,2.06,9.57,351.74
F3,BR2_0000385#01,1215488,1.16,32.45,-1093.34,-4.92,1.34,7.07,1609.81
F4,BR2_0000385#01,1215488,1.81,36.35,-1615.72,-6.53,1.88,9.75,2113.76
F7,BR2_0000385#01,1215488,6.32,11.95,-284.63,0.63,6.35,12.08,294.65
F8,BR2_0000385#01,1215488,12.61,16.24,-514.59,4.56,12.8,20.67,488.64
Fz,BR2_0000385#01,1215488,-3.37,38.6,-2335.85,-9.22,-3.13,1.88,1941.07
C3,BR2_0000385#01,1215488,-9.35,18.6,-2049.16,-18.7,-10.11,-0.09,167.95
C4,BR2_0000385#01,1215488,21.15,14.86,-305.93,13.69,21.03,28.54,407.93
Cz,BR2_0000385#01,1215488,-20.24,18.69,-259.22,-31.41,-21.74,-10.11,321.68
T3,BR2_0000385#01,1215488,21.44,16.81,-259.58,12.08,21.92,31.41,241.32
T4,BR2_0000385#01,1215488,20.16,16.57,-352.46,10.47,20.31,29.8,481.13
T5,BR2_0000385#01,1215488,3.71,20.53,-189.78,-7.61,3.13,14.05,472.72
T6,BR2_0000385#01,1215488,4.89,31.4,-301.45,-7.43,4.03,15.3,908.84
P3,BR2_0000385#01,1215488,-0.41,45.61,-2615.56,-13.15,1.34,11.36,3265.17
P4,BR2_0000385#01,1215488,1.61,59.9,-4083.37,-11.36,2.77,13.51,3998.9
Pz,BR2_0000385#01,1215488,14.6,47.74,-3115.74,4.21,15.84,23.89,3155.47
O1,BR2_0000385#01,1215488,-51.86,59.96,-376.26,-67.2,-55.57,-41.79,2203.6
O2,BR2_0000385#01,1215488,17.51,28.06,-339.39,3.85,16.02,29.08,870.9
Fp1,BR2_0000386#01,23055104,36.47,23.56,-1173.16,22.82,38.03,50.2,764.6
Fp2,BR2_0000386#01,23055104,23.26,25.97,-1105.15,9.57,23.0,36.24,1844.43
F3,BR2_0000386#01,23055104,1.36,41.81,-4308.5,-3.49,1.34,6.0,4676.79
F4,BR2_0000386#01,23055104,1.86,51.79,-5466.89,-4.56,1.88,8.32,5677.7
F7,BR2_0000386#01,23055104,18.13,32.24,-1140.41,6.35,16.73,28.01,4177.14
F8,BR2_0000386#01,23055104,63.93,26.65,-1059.34,48.05,64.87,79.73,1048.42
Fz,BR2_0000386#01,23055104,3.34,55.92,-5601.29,-2.24,2.95,8.68,5665.0
C3,BR2_0000386#01,23055104,-42.04,16.51,-1244.56,-50.2,-42.5,-34.27,399.17
C4,BR2_0000386#01,23055104,28.84,32.26,-2024.46,12.44,26.93,43.76,2169.59
Cz,BR2_0000386#01,23055104,-12.8,39.64,-975.59,-26.75,-13.33,-0.63,2871.83
T3,BR2_0000386#01,23055104,59.26,32.76,-1153.83,41.25,58.97,76.33,1930.15
T4,BR2_0000386#01,23055104,49.24,31.29,-1071.69,33.38,48.41,64.34,3132.03
T5,BR2_0000386#01,23055104,34.8,40.47,-1049.32,14.23,33.38,53.42,2370.21
T6,BR2_0000386#01,23055104,60.76,35.84,-1013.71,39.46,61.11,81.34,1434.79
P3,BR2_0000386#01,23055104,0.29,52.31,-5150.5,-9.04,-0.27,9.57,5864.0
P4,BR2_0000386#01,23055104,1.83,89.02,-5864.0,-8.32,1.34,11.9,5864.0
Pz,BR2_0000386#01,23055104,16.32,63.35,-5838.05,8.32,16.02,24.07,5864.0
O1,BR2_0000386#01,23055104,9.91,56.74,-5640.84,-23.18,11.54,40.35,4819.96
O2,BR2_0000386#01,23055104,43.96,37.62,-1047.89,23.18,44.47,63.44,1792.17
Fp1,BR3_0000161#01,613632,6.89,531.53,-5851.47,7.43,22.1,35.52,5851.47
Fp2,BR3_0000161#01,613632,6.47,334.47,-5851.47,-18.88,-3.85,9.57,5851.47
F3,BR3_0000161#01,613632,-24.1,151.98,-5851.47,-32.12,-24.25,-15.48,5851.47
F4,BR3_0000161#01,613632,-68.05,287.41,-5851.47,-87.06,-67.2,-48.05,5535.25
F7,BR3_0000161#01,613632,14.05,221.13,-5851.47,0.09,16.73,32.66,5851.47
F8,BR3_0000161#01,613632,3.03,124.18,-5851.47,-13.15,4.56,22.1,5851.47
Fz,BR3_0000161#01,613632,3.38,117.47,-5851.47,-0.27,3.85,9.04,5851.47
C3,BR3_0000161#01,613632,2.99,230.96,-5851.47,-8.5,5.46,19.77,5851.47
C4,BR3_0000161#01,613632,-2.33,133.85,-5851.47,-18.16,0.09,17.09,5851.47
Cz,BR3_0000161#01,613632,11.07,191.17,-5851.47,0.45,12.08,24.43,5851.47
T3,BR3_0000161#01,613632,-1.01,183.53,-5851.47,-19.6,1.16,21.21,5851.47
T4,BR3_0000161#01,613632,7.49,229.0,-5851.47,-12.26,10.83,33.55,5851.47
T5,BR3_0000161#01,613632,-1.38,162.33,-5851.47,-32.48,5.28,37.31,5796.0
T6,BR3_0000161#01,613632,-1.13,135.73,-5851.47,-34.09,5.1,39.28,5851.47
P3,BR3_0000161#01,613632,8.23,175.25,-5851.47,-16.73,12.8,40.71,5851.47
P4,BR3_0000161#01,613632,-13.67,185.02,-5851.47,-41.61,-6.89,21.03,5851.47
Pz,BR3_0000161#01,613632,27.35,223.34,-5851.47,3.31,32.66,58.25,5851.47
O1,BR3_0000161#01,613632,-2.53,208.76,-5851.47,-42.32,4.74,45.72,5851.47
O2,BR3_0000161#01,613632,-7.28,161.32,-5851.47,-39.28,-0.81,30.87,5851.47
Fp1,BR3_0000162#01,38128640,100.63,60.8,-5864.0,56.46,99.77,143.26,5099.13
Fp2,BR3_0000162#01,38128640,15.12,106.41,-5551.36,-6.17,15.48,39.64,5555.12
F3,BR3_0000162#01,38128640,-79.84,40.44,-5736.94,-101.38,-73.46,-60.94,5864.0
F4,BR3_0000162#01,38128640,-72.16,47.97,-5725.84,-92.25,-73.46,-51.45,5732.29
F7,BR3_0000162#01,38128640,-8.04,43.12,-5509.84,-27.47,-7.25,11.72,5007.87
F8,BR3_0000162#01,38128640,20.19,44.37,-5176.09,-0.81,18.7,40.71,5013.41
Fz,BR3_0000162#01,38128640,-5.35,34.62,-4986.03,-19.42,-4.74,10.11,5015.74
C3,BR3_0000162#01,38128640,36.84,42.14,-5508.59,15.12,38.57,56.64,5003.93
C4,BR3_0000162#01,38128640,63.62,53.32,-5055.83,28.36,68.81,95.3,5009.83
Cz,BR3_0000162#01,38128640,-68.75,55.67,-5649.79,-97.8,-72.57,-46.62,5007.15
T3,BR3_0000162#01,38128640,-15.62,48.33,-4986.39,-39.64,-14.76,8.68,5054.22
T4,BR3_0000162#01,38128640,76.83,58.26,-5387.26,40.53,81.52,111.76,5014.31
T5,BR3_0000162#01,38128640,14.24,61.68,-4985.85,-18.7,15.66,48.23,5111.12
T6,BR3_0000162#01,38128640,-22.78,68.83,-4987.29,-56.64,-22.46,13.69,5082.49
P3,BR3_0000162#01,38128640,7.14,55.13,-5103.07,-17.99,8.14,33.2,5012.7
P4,BR3_0000162#01,38128640,-26.56,61.63,-4981.56,-54.31,-25.5,3.49,5627.06
Pz,BR3_0000162#01,38128640,41.31,56.06,-5864.0,15.12,40.18,68.81,5685.4
O1,BR3_0000162#01,38128640,-24.6,68.46,-4985.32,-56.28,-23.0,9.57,5202.57
O2,BR3_0000162#01,38128640,-28.89,66.54,-4980.66,-62.55,-26.4,6.17,5542.77
Fp1,BR3_0000208#01,466944,187.65,438.2,-3595.17,-117.84,-70.06,736.68,4672.5
Fp2,BR3_0000208#01,466944,-463.86,494.41,-1101.57,-819.72,-769.97,186.56,5026.66
F3,BR3_0000208#01,466944,7.77,167.64,-3359.31,-22.82,1.52,42.14,2296.66
F4,BR3_0000208#01,466944,5.76,192.06,-4178.75,-31.77,-1.52,52.17,3095.7
F7,BR3_0000208#01,466944,-411.22,614.57,-5864.0,-749.39,-700.35,144.51,5864.0
F8,BR3_0000208#01,466944,224.73,398.4,-383.78,-57.53,-12.97,739.9,1418.33
Fz,BR3_0000208#01,466944,-184.57,373.19,-809.16,-453.75,-406.68,307.9,856.4
C3,BR3_0000208#01,466944,216.22,368.52,-535.71,-40.35,-9.04,695.34,1141.3
C4,BR3_0000208#01,466944,223.45,369.62,-332.06,-33.91,-6.89,708.58,1258.16
Cz,BR3_0000208#01,466944,-310.34,406.02,-923.87,-596.56,-558.26,222.36,1189.26
T3,BR3_0000208#01,466944,-397.94,469.25,-5831.25,-722.72,-679.95,172.6,2424.79
T4,BR3_0000208#01,466944,-185.83,379.06,-775.16,-454.28,-418.49,314.52,775.69
T5,BR3_0000208#01,466944,-283.52,408.23,-1109.81,-558.97,-508.33,102.81,1725.06
T6,BR3_0000208#01,466944,-464.56,426.99,-3717.94,-762.99,-732.74,78.83,696.24
P3,BR3_0000208#01,466944,1.69,310.08,-5523.62,-59.68,-10.65,80.08,3725.99
P4,BR3_0000208#01,466944,1.52,452.08,-5686.12,-95.47,-17.81,126.25,5543.13
Pz,BR3_0000208#01,466944,-347.33,411.65,-1060.24,-637.9,-612.13,184.24,827.59
O1,BR3_0000208#01,466944,-264.43,591.35,-1073.12,-676.73,-634.32,400.06,2096.94
O2,BR3_0000208#01,466944,-782.44,495.52,-1496.18,-1145.06,-1095.49,-153.28,1351.76
Fp1,BR3_0000209#01,18471680,-77.21,1243.11,-5864.0,-111.76,-87.78,-63.26,5864.0
Fp2,BR3_0000209#01,18471680,-1206.29,1248.67,-5864.0,-1395.96,-1278.92,-1040.91,5864.0
F3,BR3_0000209#01,18471680,1.12,442.7,-5864.0,-24.43,-2.06,35.88,5864.0
F4,BR3_0000209#01,18471680,2.94,286.72,-5864.0,-28.9,-3.31,42.14,5864.0
F7,BR3_0000209#01,18471680,-716.81,1217.36,-5864.0,-783.03,-744.91,-711.63,5864.0
F8,BR3_0000209#01,18471680,-91.52,1253.42,-5864.0,-158.65,-106.93,-47.16,5864.0
Fz,BR3_0000209#01,18471680,-363.47,1085.39,-5864.0,-489.72,-436.03,-370.71,5864.0
C3,BR3_0000209#01,18471680,-60.79,1245.7,-5864.0,-114.62,-60.04,-13.15,5864.0
C4,BR3_0000209#01,18471680,44.3,1225.06,-5864.0,4.56,31.77,66.3,5864.0
Cz,BR3_0000209#01,18471680,-449.13,1214.13,-5864.0,-505.29,-470.03,-436.03,5864.0
T3,BR3_0000209#01,18471680,-811.27,1222.16,-5864.0,-910.45,-835.29,-780.17,5864.0
T4,BR3_0000209#01,18471680,-401.58,1223.73,-5864.0,-467.89,-425.83,-368.92,5864.0
T5,BR3_0000209#01,18471680,-530.89,1228.33,-5864.0,-590.29,-561.12,-529.98,5864.0
T6,BR3_0000209#01,18471680,-875.36,1213.12,-5864.0,-1009.05,-874.12,-789.47,5864.0
P3,BR3_0000209#01,18471680,-2.56,463.66,-5864.0,-54.49,-11.9,66.48,5864.0
P4,BR3_0000209#01,18471680,-0.88,534.49,-5864.0,-103.35,-21.92,124.47,5864.0
Pz,BR3_0000209#01,18471680,-575.29,1212.2,-5864.0,-619.28,-602.28,-575.26,5864.0
O1,BR3_0000209#01,18471680,-710.26,1263.73,-5864.0,-831.71,-718.07,-656.86,5864.0
O2,BR3_0000209#01,18471680,-749.08,1226.68,-5864.0,-983.46,-760.66,-602.64,5864.0
Fp1,BR3_0000246#01,404480,559.22,38.02,300.38,541.97,558.26,574.72,996.71
Fp2,BR3_0000246#01,404480,562.58,43.87,160.44,544.66,562.37,579.73,958.05
F3,BR3_0000246#01,404480,8.96,98.27,-1656.7,-23.35,3.67,41.43,5665.18
F4,BR3_0000246#01,404480,6.8,71.77,-2523.39,-36.06,-0.63,50.38,2872.18
C3,BR3_0000246#01,404480,32.43,29.85,-206.79,16.73,33.55,48.77,295.55
C4,BR3_0000246#01,404480,26.85,35.98,-207.14,8.14,28.36,46.08,324.36
P3,BR3_0000246#01,404480,2.24,83.84,-2622.9,-62.37,-9.04,68.09,2156.35
P4,BR3_0000246#01,404480,5.45,233.47,-3234.75,-199.81,-32.84,211.26,5789.55
O1,BR3_0000246#01,404480,-60.61,53.8,-634.67,-86.71,-60.76,-35.17,553.43
O2,BR3_0000246#01,404480,80.21,56.0,-227.54,53.6,77.76,101.2,968.07
F7,BR3_0000246#01,404480,40.25,44.69,-351.56,22.82,40.0,56.1,531.77
F8,BR3_0000246#01,404480,9.72,29.91,-172.25,-7.61,10.47,27.11,202.49
T3,BR3_0000246#01,404480,55.34,30.46,-143.43,37.49,55.57,73.46,394.69
T4,BR3_0000246#01,404480,-9.2,34.88,-295.19,-28.01,-8.68,9.57,261.19
T5,BR3_0000246#01,404480,561.13,50.22,200.34,534.28,560.76,587.07,1036.26
T6,BR3_0000246#01,404480,-15.23,35.34,-162.05,-36.95,-15.3,6.0,297.16
Fz,BR3_0000246#01,404480,8.65,133.33,-4637.07,-71.85,-6.0,91.36,5654.26
Cz,BR3_0000246#01,404480,70.86,32.29,-211.8,57.36,71.67,85.45,429.59
Pz,BR3_0000246#01,404480,5.71,99.74,-3349.82,-25.68,2.59,36.78,5340.19
Fp1,BR3_0000247#01,5724416,422.55,116.66,-5665.89,382.34,414.02,465.02,5728.89
Fp2,BR3_0000247#01,5724416,388.04,108.71,-2903.86,332.06,375.19,442.12,5530.78
F3,BR3_0000247#01,5724416,3.19,53.33,-5639.94,-29.26,-2.24,36.42,4304.74
F4,BR3_0000247#01,5724416,2.99,65.27,-5620.98,-39.28,-4.21,46.26,5629.21
F7,BR3_0000247#01,5724416,-0.08,128.65,-4643.87,-21.21,-1.34,18.7,5654.44
F8,BR3_0000247#01,5724416,4.19,92.53,-4607.9,-15.84,3.85,23.18,5688.98
Fz,BR3_0000247#01,5724416,2.53,98.24,-5632.79,-78.12,-12.8,84.02,5645.13
C3,BR3_0000247#01,5724416,-56.23,105.74,-4864.88,-78.83,-59.32,-35.88,5776.67
C4,BR3_0000247#01,5724416,-47.32,91.53,-4812.44,-79.55,-49.66,-13.15,3646.53
Cz,BR3_0000247#01,5724416,-37.02,102.16,-4595.19,-67.2,-45.9,-3.67,5699.9
T3,BR3_0000247#01,5724416,73.58,107.13,-4397.08,51.63,74.0,95.12,5673.77
T4,BR3_0000247#01,5724416,19.03,108.04,-4470.81,-5.1,18.52,42.32,5640.48
T5,BR3_0000247#01,5724416,439.59,119.8,-4480.3,391.83,432.27,491.51,5527.02
T6,BR3_0000247#01,5724416,-145.01,121.93,-4977.98,-217.34,-151.31,-67.02,5640.84
P3,BR3_0000247#01,5724416,-1.78,94.42,-5645.31,-68.99,-13.33,66.48,5649.07
P4,BR3_0000247#01,5724416,1.36,232.73,-5652.11,-204.64,-37.67,208.58,5833.04
Pz,BR3_0000247#01,5724416,0.68,70.49,-5639.77,-30.51,-2.95,32.48,5644.42
O1,BR3_0000247#01,5724416,-324.32,158.17,-5297.06,-424.04,-368.92,-211.08,3293.09
O2,BR3_0000247#01,5724416,61.39,120.67,-4606.28,19.95,60.94,94.76,3922.67
Fp1,BR3_0000310#01,7718144,-21.7,23.8,-1363.21,-32.48,-22.82,-12.08,2844.44
Fp2,BR3_0000310#01,7718144,-47.04,29.75,-1264.61,-60.58,-47.51,-34.27,2843.73
F3,BR3_0000310#01,7718144,2.86,55.25,-5512.17,-9.75,2.24,15.66,5258.59
F4,BR3_0000310#01,7718144,2.47,66.32,-5516.82,-12.8,1.88,17.99,5527.2
F7,BR3_0000310#01,7718144,27.23,24.13,-1310.6,13.15,24.25,41.07,2890.26
F8,BR3_0000310#01,7718144,33.23,29.34,-1307.91,15.48,32.12,50.56,2895.27
Fz,BR3_0000310#01,7718144,-14.39,18.02,-913.67,-22.64,-14.23,-6.0,2866.28
C3,BR3_0000310#01,7718144,33.58,23.55,-1356.05,19.06,29.8,48.59,2903.14
C4,BR3_0000310#01,7718144,-453.14,40.01,-1306.3,-480.41,-454.82,-425.65,2405.1
Cz,BR3_0000310#01,7718144,-5.3,22.05,-1329.21,-15.84,-5.28,5.64,2899.21
T3,BR3_0000310#01,7718144,-45.1,36.18,-1187.12,-69.7,-36.78,-21.39,2876.12
T4,BR3_0000310#01,7718144,1.06,41.82,-1389.16,-14.59,2.42,17.81,3607.7
T5,BR3_0000310#01,7718144,-46.78,39.41,-1893.64,-71.31,-49.3,-24.07,1823.13
T6,BR3_0000310#01,7718144,-43.46,33.95,-1525.88,-59.86,-43.4,-28.01,2892.58
P3,BR3_0000310#01,7718144,-0.28,72.14,-5522.73,-25.86,-2.06,25.14,5538.65
P4,BR3_0000310#01,7718144,1.42,127.47,-5549.57,-39.64,-1.52,42.32,5570.87
Pz,BR3_0000310#01,7718144,-119.44,62.13,-1091.91,-170.1,-130.19,-63.62,2896.34
O1,BR3_0000310#01,7718144,-317.9,97.77,-1427.28,-375.54,-353.53,-275.15,5522.73
O2,BR3_0000310#01,7718144,1.3,52.03,-2164.41,-15.84,-0.27,16.02,2918.35
Fp1,BR3_0000323#01,16773632,-10.64,48.93,-5047.59,-34.45,-11.72,12.26,5547.42
Fp2,BR3_0000323#01,16773632,49.89,51.29,-5620.8,29.26,50.91,71.49,5864.0
F3,BR3_0000323#01,16773632,2.98,18.44,-3721.7,-0.63,2.77,6.71,5518.43
F4,BR3_0000323#01,16773632,2.85,39.88,-4685.2,-1.52,2.95,7.25,5523.26
F7,BR3_0000323#01,16773632,-14.7,62.44,-5549.39,-36.24,-14.76,6.0,5637.62
F8,BR3_0000323#01,16773632,26.6,46.73,-5502.68,3.31,27.29,50.2,5851.47
Fz,BR3_0000323#01,16773632,2.27,63.05,-5509.84,-1.52,2.06,6.0,5524.52
C3,BR3_0000323#01,16773632,54.36,68.48,-5646.03,40.0,55.39,69.88,5781.14
C4,BR3_0000323#01,16773632,19.77,29.78,-4587.14,7.07,20.31,33.02,5543.31
Cz,BR3_0000323#01,16773632,-184.94,77.06,-5537.94,-210.19,-189.61,-164.19,5566.21
T3,BR3_0000323#01,16773632,54.63,57.53,-5638.16,33.91,54.67,75.61,5728.53
T4,BR3_0000323#01,16773632,11.75,58.11,-5557.45,-10.29,11.9,34.45,5851.47
T5,BR3_0000323#01,16773632,16.12,43.3,-5598.43,1.88,16.02,30.15,5734.97
T6,BR3_0000323#01,16773632,-5.33,78.47,-4944.16,-26.75,-4.38,17.27,5851.47
P3,BR3_0000323#01,16773632,-0.35,16.07,-3142.05,-6.53,0.09,5.64,4205.06
P4,BR3_0000323#01,16773632,1.38,35.7,-5579.28,-5.64,2.06,8.14,5547.6
Pz,BR3_0000323#01,16773632,0.64,39.58,-5707.59,-4.74,0.98,5.82,5532.75
O1,BR3_0000323#01,16773632,-519.17,120.32,-5544.2,-554.86,-528.02,-503.32,5599.68
O2,BR3_0000323#01,16773632,1.74,59.3,-5583.04,-14.05,0.63,15.84,5659.99
Fp1,BR3_0000347#01,447744,148.43,72.32,-5115.42,144.51,150.95,155.25,592.26
Fp2,BR3_0000347#01,447744,160.36,72.98,-5134.21,160.08,161.87,164.01,585.82
F3,BR3_0000347#01,447744,197.69,77.35,-5132.78,178.69,199.63,215.55,749.56
F4,BR3_0000347#01,447744,-47.29,72.59,-5108.08,-58.97,-45.72,-32.84,34.99
F7,BR3_0000347#01,447744,117.7,74.43,-5131.88,114.44,119.99,123.93,466.81
F8,BR3_0000347#01,447744,174.68,73.31,-5124.01,173.5,176.18,178.87,640.58
Fz,BR3_0000347#01,447744,-1.23,94.59,-5122.22,-8.14,-3.13,5.28,1133.25
C3,BR3_0000347#01,447744,-193.86,67.97,-5121.33,-195.51,-193.72,-192.11,0.27
C4,BR3_0000347#01,447744,33.09,69.92,-5136.0,31.05,33.73,37.49,198.91
Cz,BR3_0000347#01,447744,-34.83,69.25,-5126.51,-42.32,-34.45,-26.04,48.94
T3,BR3_0000347#01,447744,153.55,72.51,-5113.99,153.1,155.07,157.21,556.65
T4,BR3_0000347#01,447744,74.17,72.71,-5116.49,73.1,75.43,77.58,303.6
T5,BR3_0000347#01,447744,-24.81,68.9,-5136.0,-30.33,-24.25,-17.63,100.66
T6,BR3_0000347#01,447744,58.45,70.51,-5116.85,53.6,60.04,65.23,282.48
P3,BR3_0000347#01,447744,69.87,72.78,-5125.98,65.77,70.96,76.15,296.8
P4,BR3_0000347#01,447744,-231.18,70.99,-5118.46,-247.23,-233.27,-214.84,0.27
Pz,BR3_0000347#01,447744,-121.88,67.88,-5119.89,-125.9,-121.78,-117.13,32.12
O1,BR3_0000347#01,447744,-138.72,69.28,-5130.81,-148.27,-138.78,-128.04,0.27
O2,BR3_0000347#01,447744,474.08,87.91,-5132.6,462.52,477.55,491.87,1554.34
Fp1,BR3_0000354#01,22872576,661.68,22.84,212.51,647.92,661.88,675.66,2458.07
Fp2,BR3_0000354#01,22872576,681.99,35.01,201.24,655.08,683.89,708.94,2484.38
F3,BR3_0000354#01,22872576,3.83,109.32,-5864.0,-64.69,3.67,72.21,5864.0
F4,BR3_0000354#01,22872576,3.28,135.59,-5642.09,-94.22,3.49,101.02,5864.0
F7,BR3_0000354#01,22872576,549.65,48.86,97.26,509.76,546.27,588.14,2432.48
F8,BR3_0000354#01,22872576,623.44,21.9,181.37,610.34,623.94,637.18,2446.98
Fz,BR3_0000354#01,22872576,2.78,154.09,-5799.04,-81.52,2.77,87.06,5864.0
C3,BR3_0000354#01,22872576,205.86,84.98,-116.05,157.57,176.54,220.39,2191.25
C4,BR3_0000354#01,22872576,551.77,26.75,162.94,532.49,550.21,570.61,2436.24
Cz,BR3_0000354#01,22872576,259.98,100.06,-31.05,194.8,223.07,289.64,2224.18
T3,BR3_0000354#01,22872576,587.24,26.02,170.28,571.68,587.43,603.0,3177.49
T4,BR3_0000354#01,22872576,521.23,39.85,138.42,490.79,517.28,552.71,2405.28
T5,BR3_0000354#01,22872576,643.63,34.94,201.24,619.82,645.05,668.5,2447.7
T6,BR3_0000354#01,22872576,271.8,111.34,-6.89,189.43,234.7,325.97,2272.5
P3,BR3_0000354#01,22872576,0.19,146.42,-5789.37,-122.32,0.63,122.5,5864.0
P4,BR3_0000354#01,22872576,2.37,192.67,-5667.5,-147.37,3.13,152.56,5864.0
Pz,BR3_0000354#01,22872576,1.0,146.54,-5777.74,-107.29,1.16,108.9,5864.0
O1,BR3_0000354#01,22872576,430.43,1289.33,-5864.0,-675.83,538.75,1505.3,5864.0
O2,BR3_0000354#01,22872576,26.6,45.17,-1076.34,7.07,26.93,46.62,5657.48
Fp1,BR3_0000410#01,353792,136.67,74.84,-108.9,70.96,137.17,205.53,360.69
Fp2,BR3_0000410#01,353792,376.49,78.92,215.2,302.53,378.41,454.11,516.92
F3,BR3_0000410#01,353792,17.53,89.6,-318.28,-67.56,17.63,102.27,316.84
F4,BR3_0000410#01,353792,8.39,109.92,-810.59,-91.18,8.14,108.0,734.35
F7,BR3_0000410#01,353792,892.44,74.94,628.59,823.47,892.37,962.35,1107.84
F8,BR3_0000410#01,353792,422.53,73.67,155.96,355.32,422.43,491.33,636.82
Fz,BR3_0000410#01,353792,16.13,99.36,-553.25,-77.22,16.2,108.9,485.6
C3,BR3_0000410#01,353792,438.37,74.86,207.32,372.5,438.89,505.82,685.86
C4,BR3_0000410#01,353792,665.51,84.48,425.11,599.06,670.29,721.65,929.06
Cz,BR3_0000410#01,353792,374.73,74.9,99.41,307.54,374.47,442.65,586.36
T3,BR3_0000410#01,353792,789.14,70.44,577.05,725.23,789.11,853.36,1023.73
T4,BR3_0000410#01,353792,217.7,68.75,24.07,155.25,216.99,279.62,397.02
T5,BR3_0000410#01,353792,893.59,64.12,686.57,837.25,893.8,950.18,1115.0
T6,BR3_0000410#01,353792,809.67,72.28,598.35,745.27,809.34,874.48,998.85
P3,BR3_0000410#01,353792,11.52,168.04,-356.75,-152.2,11.54,175.47,501.53
P4,BR3_0000410#01,353792,11.06,204.68,-743.66,-188.53,10.47,210.72,683.53
Pz,BR3_0000410#01,353792,11.59,165.59,-819.9,-149.88,11.18,173.32,1321.16
O1,BR3_0000410#01,353792,357.31,57.6,138.24,310.04,357.83,404.89,602.28
O2,BR3_0000410#01,353792,895.19,74.31,664.56,829.56,895.42,961.81,1155.08
Fp1,BR3_0000411#01,21035264,153.78,161.24,-1253.87,32.12,115.16,273.89,4035.77
Fp2,BR3_0000411#01,21035264,365.88,84.43,-451.24,296.09,334.56,447.31,2093.36
F3,BR3_0000411#01,21035264,3.11,81.3,-1665.65,-69.53,2.06,75.43,3083.71
F4,BR3_0000411#01,21035264,-0.44,101.33,-3406.73,-85.99,-1.34,84.2,5524.16
F7,BR3_0000411#01,21035264,860.52,114.03,-716.99,810.95,853.72,890.58,4902.28
F8,BR3_0000411#01,21035264,431.24,124.82,-1105.15,359.26,405.97,497.41,4331.05
Fz,BR3_0000411#01,21035264,2.45,94.07,-2552.39,-80.62,1.16,84.92,4517.7
C3,BR3_0000411#01,21035264,412.12,109.74,-1169.4,350.85,389.86,472.36,4107.17
C4,BR3_0000411#01,21035264,447.94,109.5,-1564.18,387.53,431.38,501.89,4105.92
Cz,BR3_0000411#01,21035264,451.96,136.58,-1048.42,371.78,426.72,529.63,4640.29
T3,BR3_0000411#01,21035264,486.01,552.45,-2342.47,628.41,765.85,805.04,4150.3
T4,BR3_0000411#01,21035264,432.17,126.83,-1450.9,355.86,415.99,520.5,3761.07
T5,BR3_0000411#01,21035264,915.84,86.43,-1279.1,878.77,913.31,955.37,3971.52
T6,BR3_0000411#01,21035264,858.12,91.58,-1691.96,806.83,847.1,916.17,3607.34
P3,BR3_0000411#01,21035264,-0.33,160.69,-2894.2,-145.4,-2.24,144.15,3716.51
P4,BR3_0000411#01,21035264,1.33,199.96,-5524.34,-178.69,-0.98,180.48,5538.83
Pz,BR3_0000411#01,21035264,0.71,161.93,-2868.25,-144.87,-0.98,145.76,5546.89
O1,BR3_0000411#01,21035264,453.44,182.57,-1107.12,312.19,441.58,583.85,4670.17
O2,BR3_0000411#01,21035264,953.49,129.64,-671.54,884.5,935.68,1013.89,5001.24
Fp1,BR3_0000418#01,1185024,49.12,155.91,-5645.85,47.87,55.75,63.08,5847.18
Fp2,BR3_0000418#01,1185024,32.06,150.87,-5834.29,28.9,37.49,45.9,5529.35
F3,BR3_0000418#01,1185024,8.95,358.41,-5646.03,-27.29,0.27,20.67,5864.0
F4,BR3_0000418#01,1185024,13.7,279.97,-5622.59,-29.26,9.75,41.61,5855.23
F7,BR3_0000418#01,1185024,-425.76,313.99,-5132.06,-465.2,-454.11,-445.52,5864.0
F8,BR3_0000418#01,1185024,-427.52,313.53,-5124.9,-467.17,-458.04,-445.16,5653.72
Fz,BR3_0000418#01,1185024,16.52,131.18,-5631.53,14.94,20.31,25.32,5646.39
C3,BR3_0000418#01,1185024,-390.97,295.89,-5121.33,-426.01,-417.06,-411.33,5666.25
C4,BR3_0000418#01,1185024,-339.76,276.39,-5133.85,-370.17,-363.55,-354.07,5864.0
Cz,BR3_0000418#01,1185024,36.98,160.52,-5698.29,36.95,42.14,47.69,5701.86
T3,BR3_0000418#01,1185024,10.06,381.64,-5798.5,-37.49,3.67,41.43,5817.29
T4,BR3_0000418#01,1185024,14.32,383.33,-5860.06,-46.08,10.65,56.28,5775.59
T5,BR3_0000418#01,1185024,15.71,138.98,-5789.37,14.23,17.99,22.46,5699.54
T6,BR3_0000418#01,1185024,12.65,118.3,-5117.39,11.01,16.2,22.1,3823.34
P3,BR3_0000418#01,1185024,5.11,471.06,-5647.64,-43.04,-1.7,28.54,5864.0
P4,BR3_0000418#01,1185024,10.17,368.05,-5662.14,-54.13,6.17,55.92,5864.0
Pz,BR3_0000418#01,1185024,10.65,309.5,-5858.45,-31.05,6.53,34.63,5846.82
O1,BR3_0000418#01,1185024,-2.63,171.45,-5669.83,-14.41,-4.56,7.25,5708.13
O2,BR3_0000418#01,1185024,-10.6,158.75,-5774.52,-28.72,-10.29,4.74,5832.5
Fp1,BR3_0000436#01,2967552,228.91,921.73,-5864.0,237.21,281.77,319.35,5864.0
Fp2,BR3_0000436#01,2967552,227.31,889.63,-5864.0,231.66,275.33,309.69,5864.0
F3,BR3_0000436#01,2967552,3.96,264.68,-5864.0,-5.1,4.21,14.59,5864.0
F4,BR3_0000436#01,2967552,3.06,302.35,-5864.0,-7.78,3.31,16.73,5726.38
F7,BR3_0000436#01,2967552,-199.04,996.43,-5864.0,-223.97,-192.47,-158.47,5864.0
F8,BR3_0000436#01,2967552,241.01,912.55,-5864.0,233.63,279.26,325.43,5864.0
Fz,BR3_0000436#01,2967552,2.54,355.6,-5864.0,-8.68,3.31,17.09,5864.0
C3,BR3_0000436#01,2967552,-21.36,971.66,-5864.0,-69.17,28.72,79.37,5864.0
C4,BR3_0000436#01,2967552,219.02,1056.9,-5864.0,239.71,284.81,324.0,5864.0
Cz,BR3_0000436#01,2967552,205.25,823.53,-5864.0,216.81,252.6,280.52,5864.0
T3,BR3_0000436#01,2967552,225.2,839.25,-5864.0,197.84,243.83,296.26,5864.0
T4,BR3_0000436#01,2967552,214.29,1014.79,-5864.0,210.19,260.65,315.23,5864.0
T5,BR3_0000436#01,2967552,230.14,739.53,-5864.0,223.25,265.13,305.21,5864.0
T6,BR3_0000436#01,2967552,224.34,916.69,-5864.0,228.26,271.57,313.09,5864.0
P3,BR3_0000436#01,2967552,-1.03,398.14,-5864.0,-12.8,0.27,15.3,5864.0
P4,BR3_0000436#01,2967552,1.52,349.79,-5864.0,-19.95,3.31,24.43,5864.0
Pz,BR3_0000436#01,2967552,1.5,214.92,-5864.0,-9.75,0.98,13.69,5864.0
O1,BR3_0000436#01,2967552,220.27,713.72,-5864.0,204.46,250.99,293.94,5864.0
O2,BR3_0000436#01,2967552,253.38,791.86,-5864.0,247.05,290.72,328.83,5864.0
Fp1,BR3_0000494#01,384768,15.86,14.91,-916.0,10.47,15.84,21.39,393.62
Fp2,BR3_0000494#01,384768,-26.73,16.7,-199.63,-31.05,-26.4,-22.64,341.0
F3,BR3_0000494#01,384768,4.22,438.08,-5688.44,-6.89,6.53,18.88,5691.13
F4,BR3_0000494#01,384768,-2.41,718.79,-5692.92,-15.66,6.0,28.01,5821.05
F7,BR3_0000494#01,384768,1.99,11.59,-129.83,-1.7,2.06,5.64,182.27
F8,BR3_0000494#01,384768,2.25,11.38,-212.33,-1.34,2.42,6.17,238.1
Fz,BR3_0000494#01,384768,6.01,243.77,-5638.51,-2.24,6.71,14.76,5649.07
C3,BR3_0000494#01,384768,-45.78,31.35,-320.07,-52.35,-46.62,-41.07,424.04
C4,BR3_0000494#01,384768,-10.44,10.86,-236.85,-14.05,-10.11,-6.53,170.46
Cz,BR3_0000494#01,384768,-13.53,7.93,-140.57,-16.2,-12.97,-10.47,167.59
T3,BR3_0000494#01,384768,-17.7,25.23,-349.59,-23.71,-17.81,-12.44,4417.13
T4,BR3_0000494#01,384768,-25.95,11.14,-158.29,-29.8,-26.04,-22.28,136.81
T5,BR3_0000494#01,384768,-4.55,11.28,-140.03,-9.75,-4.38,0.63,195.51
T6,BR3_0000494#01,384768,-61.95,52.7,-300.2,-69.7,-64.69,-59.15,1411.71
P3,BR3_0000494#01,384768,3.24,122.86,-5073.54,-4.56,3.13,11.72,4093.57
P4,BR3_0000494#01,384768,5.06,211.2,-5640.48,-5.64,5.28,15.66,5661.78
Pz,BR3_0000494#01,384768,3.85,283.86,-5640.3,-6.17,3.67,14.41,5652.65
O1,BR3_0000494#01,384768,-31.82,16.9,-165.98,-36.78,-32.3,-27.83,274.25
O2,BR3_0000494#01,384768,-40.67,16.35,-171.35,-45.72,-40.53,-36.06,357.83
Fp1,BR3_0000519,371712,5.73,414.49,-5585.18,-32.66,-14.76,5.1,5678.6
Fp2,BR3_0000519,371712,2.95,413.14,-5592.7,-39.64,-14.41,10.11,5864.0
F3,BR3_0000519,371712,30.8,604.44,-5589.66,-0.45,7.25,16.02,5613.64
F4,BR3_0000519,371712,9.86,776.35,-5666.61,-4.03,5.28,14.94,5624.91
F7,BR3_0000519,371712,7.98,460.58,-5804.23,-22.64,-7.43,8.5,5864.0
F8,BR3_0000519,371712,31.54,320.81,-5715.82,-8.68,14.05,36.78,5864.0
Fz,BR3_0000519,371712,32.19,492.27,-5567.65,-3.31,6.17,16.55,5578.74
C3,BR3_0000519,371712,0.05,587.18,-5683.61,-26.04,-10.83,4.03,5864.0
C4,BR3_0000519,371712,16.7,386.9,-5589.12,-20.67,-2.24,15.66,5602.54
Cz,BR3_0000519,371712,12.97,489.97,-5669.11,-16.91,1.34,19.77,5656.05
T3,BR3_0000519,371712,19.83,457.55,-5622.59,-16.91,3.13,24.25,5678.96
T4,BR3_0000519,371712,-41.09,475.26,-5864.0,-83.66,-55.03,-27.11,5591.81
T5,BR3_0000519,371712,-49.44,476.3,-5864.0,-83.48,-62.19,-40.18,5642.45
T6,BR3_0000519,371712,-16.72,315.03,-5566.39,-54.13,-24.61,1.88,5570.51
P3,BR3_0000519,371712,29.15,449.51,-5580.53,-7.96,4.21,15.84,5579.1
P4,BR3_0000519,371712,22.47,600.43,-5571.4,-13.87,3.49,20.67,5616.14
Pz,BR3_0000519,371712,26.15,552.3,-5618.65,-6.17,4.38,14.23,5595.38
O1,BR3_0000519,371712,-30.39,586.01,-5864.0,-59.32,-35.88,-14.41,5733.9
O2,BR3_0000519,371712,26.84,420.47,-5623.12,-12.44,12.08,34.45,5713.14
Fp1,BR3_0000520#01,24083456,-155.99,313.84,-5864.0,-212.69,-163.48,-97.8,5864.0
Fp2,BR3_0000520#01,24083456,-211.28,1055.94,-5864.0,-309.33,-176.18,-75.79,5864.0
F3,BR3_0000520#01,24083456,2.95,245.56,-5864.0,-6.53,3.13,12.97,5864.0
F4,BR3_0000520#01,24083456,2.49,234.97,-5846.82,-3.85,2.59,9.93,5864.0
F7,BR3_0000520#01,24083456,-48.83,252.84,-5864.0,-68.45,-46.44,-22.1,5864.0
F8,BR3_0000520#01,24083456,-234.52,739.17,-5864.0,-341.36,-221.64,-107.29,5864.0
Fz,BR3_0000520#01,24083456,1.9,221.2,-5864.0,-4.21,1.88,9.22,5864.0
C3,BR3_0000520#01,24083456,-38.23,693.78,-5864.0,-88.67,-28.72,16.91,5864.0
C4,BR3_0000520#01,24083456,-130.12,271.44,-5864.0,-183.34,-140.39,-71.14,5864.0
Cz,BR3_0000520#01,24083456,-96.16,278.93,-5864.0,-128.22,-97.44,-60.58,5864.0
T3,BR3_0000520#01,24083456,-32.34,243.31,-5864.0,-57.71,-29.26,0.09,5864.0
T4,BR3_0000520#01,24083456,-236.55,609.19,-5864.0,-340.29,-234.35,-126.08,5864.0
T5,BR3_0000520#01,24083456,-147.17,363.89,-5864.0,-190.68,-153.1,-105.5,5864.0
T6,BR3_0000520#01,24083456,-180.72,324.91,-5864.0,-250.09,-193.36,-126.25,5864.0
P3,BR3_0000520#01,24083456,-0.19,222.5,-5864.0,-9.22,0.27,9.22,5864.0
P4,BR3_0000520#01,24083456,0.53,257.77,-5864.0,-12.8,0.27,16.02,5864.0
Pz,BR3_0000520#01,24083456,0.27,207.58,-5864.0,-6.53,0.27,7.96,5864.0
O1,BR3_0000520#01,24083456,-154.08,639.4,-5864.0,-208.93,-152.92,-80.26,5864.0
O2,BR3_0000520#01,24083456,-229.36,747.33,-5864.0,-331.88,-193.72,-101.02,5864.0
Fp1,M15_0000043,461056,-62.5,75.29,-5851.47,-103.17,-58.79,-17.63,584.92
Fp2,M15_0000043,461056,-17.39,96.51,-5851.47,-72.21,-10.47,45.9,407.58
F3,M15_0000043,461056,-5.44,66.38,-5851.47,-42.86,-7.07,31.77,478.09
F4,M15_0000043,461056,-17.04,84.23,-5851.47,-69.17,-19.24,33.55,558.97
F7,M15_0000043,461056,-21.83,83.4,-4999.99,-75.61,-21.03,30.69,5851.47
F8,M15_0000043,461056,-1.81,81.46,-4999.99,-51.09,-0.27,48.77,5851.47
Fz,M15_0000043,461056,-10.73,85.02,-5851.47,-67.91,-17.99,39.82,607.11
C3,M15_0000043,461056,-19.52,153.7,-5851.47,-132.52,-31.05,88.49,695.88
C4,M15_0000043,461056,-12.01,140.66,-5616.86,-109.43,-19.06,82.41,2215.59
Cz,M15_0000043,461056,4.6,171.29,-5851.47,-122.14,-6.89,124.11,705.54
T3,M15_0000043,461056,-55.89,131.15,-4999.99,-147.55,-65.95,26.58,783.92
T4,M15_0000043,461056,-15.21,127.21,-5851.47,-102.27,-22.64,67.2,625.01
T5,M15_0000043,461056,-17.23,155.27,-5493.02,-125.0,-27.29,81.34,796.45
T6,M15_0000043,461056,-21.64,138.25,-5851.47,-115.52,-29.08,66.12,701.96
P3,M15_0000043,461056,-17.84,165.7,-5851.47,-137.71,-28.36,96.37,706.44
P4,M15_0000043,461056,0.12,156.81,-5851.47,-109.61,-8.14,105.14,875.19
Pz,M15_0000043,461056,-19.22,177.11,-5851.47,-147.55,-31.59,101.74,806.29
O1,M15_0000043,461056,-23.66,177.69,-5851.47,-147.91,-36.78,87.78,808.26
O2,M15_0000043,461056,-27.15,160.66,-4999.99,-139.14,-37.13,77.04,3554.01
Fp1,M15_0000044#01,30681088,-80.68,79.98,-5008.58,-117.13,-84.38,-41.61,2533.24
Fp2,M15_0000044#01,30681088,-7.27,79.53,-5011.62,-44.29,-0.63,37.49,1443.56
F3,M15_0000044#01,30681088,6.53,57.8,-5012.34,-18.52,10.47,34.27,798.24
F4,M15_0000044#01,30681088,-81.46,79.78,-5012.52,-127.15,-87.96,-39.82,786.79
F7,M15_0000044#01,30681088,-54.97,63.29,-5011.8,-89.03,-56.46,-21.74,462.7
F8,M15_0000044#01,30681088,-28.72,71.15,-5012.16,-69.35,-29.62,11.54,660.62
Fz,M15_0000044#01,30681088,-67.73,65.33,-5012.7,-99.59,-72.39,-39.28,768.89
C3,M15_0000044#01,30681088,-71.26,92.42,-5011.62,-123.75,-78.47,-26.75,798.78
C4,M15_0000044#01,30681088,-85.18,97.57,-5011.27,-144.51,-94.58,-34.99,1062.56
Cz,M15_0000044#01,30681088,-72.06,113.75,-5013.77,-144.69,-85.27,-10.47,780.35
T3,M15_0000044#01,30681088,-84.22,93.82,-5533.11,-136.1,-87.96,-36.06,1188.55
T4,M15_0000044#01,30681088,-76.68,93.81,-5011.62,-134.31,-81.87,-25.68,1000.64
T5,M15_0000044#01,30681088,-39.3,121.81,-5011.44,-113.37,-41.25,28.19,1253.51
T6,M15_0000044#01,30681088,-60.51,114.13,-5011.44,-129.48,-63.08,3.67,1507.99
P3,M15_0000044#01,30681088,-75.88,111.29,-5012.16,-143.79,-82.77,-16.2,2000.12
P4,M15_0000044#01,30681088,-75.85,114.39,-5012.16,-148.8,-83.66,-12.26,2271.96
Pz,M15_0000044#01,30681088,-80.31,124.29,-5011.8,-160.26,-87.96,-11.01,1062.38
O1,M15_0000044#01,30681088,-58.82,138.08,-5012.34,-150.24,-66.66,21.92,1417.44
O2,M15_0000044#01,30681088,-53.92,133.81,-5011.44,-140.21,-55.92,26.04,1647.93
Fp1,M15_0000051#01,310784,-0.52,11.75,-99.59,-6.0,-0.81,4.56,271.93
Fp2,M15_0000051#01,310784,14.6,14.85,-102.45,7.61,14.76,21.74,288.93
F3,M15_0000051#01,310784,5.21,259.86,-4617.38,-0.45,3.85,10.11,5519.51
F4,M15_0000051#01,310784,-13.68,856.65,-5864.0,-6.71,4.74,15.3,5664.28
F7,M15_0000051#01,310784,-0.02,10.45,-81.69,-4.74,0.09,4.74,265.3
F8,M15_0000051#01,310784,-15.75,16.01,-132.7,-23.18,-15.48,-7.96,258.33
Fz,M15_0000051#01,310784,22.66,126.18,-2267.13,13.15,18.7,24.61,5135.1
C3,M15_0000051#01,310784,-5.99,9.05,-87.6,-9.93,-5.46,-1.52,252.42
C4,M15_0000051#01,310784,-10.33,12.48,-97.62,-16.91,-9.93,-3.31,252.96
Cz,M15_0000051#01,310784,-13.42,8.81,-80.8,-17.63,-13.33,-9.04,247.59
T3,M15_0000051#01,310784,-13.71,10.87,-101.02,-18.52,-13.15,-8.14,248.66
T4,M15_0000051#01,310784,4.15,13.91,-89.03,-3.13,4.56,12.08,272.64
T5,M15_0000051#01,310784,2.95,11.86,-87.42,-2.59,3.49,9.4,262.08
T6,M15_0000051#01,310784,-8.34,14.44,-110.69,-15.48,-7.43,-0.27,256.18
P3,M15_0000051#01,310784,5.44,268.07,-5540.8,-3.85,4.21,12.62,5554.05
P4,M15_0000051#01,310784,-83.92,148.84,-4881.34,-93.33,-83.66,-75.07,3278.42
Pz,M15_0000051#01,310784,-3.57,634.96,-5785.08,-4.92,3.49,12.97,5624.02
O1,M15_0000051#01,310784,20.39,15.57,-84.2,12.8,21.56,29.08,280.87
O2,M15_0000051#01,310784,36.93,16.58,-70.42,27.83,37.85,46.98,296.62
Fp1,M15_0000052#01,22735104,4.13,10.76,-216.09,-1.88,2.95,8.86,302.53
Fp2,M15_0000052#01,22735104,-14.98,21.85,-394.69,-27.29,-17.63,-1.7,1996.9
F3,M15_0000052#01,22735104,-0.07,31.99,-4102.16,-4.56,0.09,4.56,3261.77
F4,M15_0000052#01,22735104,-0.65,200.19,-5864.0,-6.89,0.09,6.89,5682.0
F7,M15_0000052#01,22735104,-16.45,13.74,-244.19,-26.58,-18.88,-5.46,298.95
F8,M15_0000052#01,22735104,-29.55,27.07,-396.3,-51.27,-23.18,-8.86,588.68
Fz,M15_0000052#01,22735104,38.89,26.42,-3621.66,28.9,39.46,48.41,3110.56
C3,M15_0000052#01,22735104,-38.25,10.37,-271.03,-43.93,-40.18,-34.99,599.06
C4,M15_0000052#01,22735104,20.55,20.36,-171.35,7.07,19.06,32.84,307.18
Cz,M15_0000052#01,22735104,-30.95,8.57,-269.6,-36.6,-32.12,-26.22,283.74
T3,M15_0000052#01,22735104,-37.23,14.06,-428.16,-44.47,-37.31,-29.62,1232.21
T4,M15_0000052#01,22735104,3.12,16.88,-509.76,-4.38,2.77,9.75,2249.77
T5,M15_0000052#01,22735104,-0.09,12.5,-175.47,-7.96,-1.34,8.86,465.56
T6,M15_0000052#01,22735104,69.28,36.19,-135.2,45.01,65.23,96.55,534.28
P3,M15_0000052#01,22735104,-0.05,34.22,-5577.31,-8.86,0.09,9.04,4622.39
P4,M15_0000052#01,22735104,-75.8,38.72,-5559.95,-92.97,-71.14,-59.5,3875.96
Pz,M15_0000052#01,22735104,-0.02,82.68,-5601.47,-9.75,0.09,10.11,5624.38
O1,M15_0000052#01,22735104,67.11,37.54,-396.66,38.57,78.65,93.51,1972.38
O2,M15_0000052#01,22735104,28.83,38.31,-694.27,-7.07,40.35,60.4,1497.61
Fp1,M15_0000063#01,521984,-43.37,19.64,-128.76,-57.0,-45.19,-30.87,54.49
Fp2,M15_0000063#01,521984,39.65,21.65,-4999.99,29.26,39.64,50.2,186.38
F3,M15_0000063#01,521984,12.98,13.92,-4999.99,8.68,13.15,17.45,117.66
F4,M15_0000063#01,521984,8.01,21.18,-4999.99,-1.88,8.14,18.34,145.58
F7,M15_0000063#01,521984,24.68,19.81,-4999.99,16.37,24.43,32.66,239.18
F8,M15_0000063#01,521984,11.13,25.01,-4999.99,-1.88,10.47,23.71,178.69
Fz,M15_0000063#01,521984,-395.03,23.06,-1064.35,-407.76,-395.05,-381.81,0.09
C3,M15_0000063#01,521984,10.57,16.41,-4999.99,5.1,10.65,16.02,100.31
C4,M15_0000063#01,521984,2.51,103.98,-4999.99,-8.86,2.59,14.23,2838.72
Cz,M15_0000063#01,521984,16.7,18.67,-152.38,5.46,16.73,28.19,134.13
T3,M15_0000063#01,521984,-15.73,24.59,-4999.99,-27.83,-15.12,-2.77,128.94
T4,M15_0000063#01,521984,7.73,27.08,-4999.99,-6.35,7.25,21.56,144.51
T5,M15_0000063#01,521984,2.67,17.47,-159.72,-8.32,2.42,13.69,116.59
T6,M15_0000063#01,521984,33.24,20.59,-136.63,20.31,33.2,46.08,215.38
P3,M15_0000063#01,521984,-4.87,20.65,-4999.99,-14.23,-4.56,4.74,93.86
P4,M15_0000063#01,521984,33.4,23.35,-4999.99,21.21,33.55,45.9,167.77
Pz,M15_0000063#01,521984,40.74,21.4,-196.41,28.19,41.07,53.78,247.77
O1,M15_0000063#01,521984,-146.7,2137.8,-5851.47,-2114.83,37.31,1868.77,5700.97
O2,M15_0000063#01,521984,87.57,2075.5,-5851.47,-1824.03,249.74,1954.67,5851.47
Fp1,M15_0000064#01,44391168,-69.6,38.01,-5864.0,-81.16,-70.06,-58.61,5442.2
Fp2,M15_0000064#01,44391168,225.49,77.67,-5485.33,184.59,248.3,278.91,5864.0
F3,M15_0000064#01,44391168,-2.25,28.81,-5020.57,-7.43,-2.24,2.95,5004.11
F4,M15_0000064#01,44391168,-51.62,34.18,-5010.73,-64.87,-52.35,-38.92,5010.19
F7,M15_0000064#01,44391168,-6.05,34.38,-5062.09,-16.91,-6.53,4.38,5864.0
F8,M15_0000064#01,44391168,-68.42,42.4,-5010.73,-89.57,-71.85,-49.12,5011.09
Fz,M15_0000064#01,44391168,-603.97,75.67,-5603.8,-630.56,-614.81,-589.58,5606.66
C3,M15_0000064#01,44391168,-12.88,30.35,-5015.2,-21.03,-12.62,-4.21,5003.75
C4,M15_0000064#01,44391168,-17.98,35.53,-5010.73,-31.94,-17.45,-3.13,5009.66
Cz,M15_0000064#01,44391168,-39.37,39.3,-5034.35,-57.53,-41.61,-22.1,5276.84
T3,M15_0000064#01,44391168,-195.11,104.48,-5010.73,-275.15,-236.85,-133.06,5035.78
T4,M15_0000064#01,44391168,-56.97,43.72,-5010.73,-78.65,-55.57,-34.63,5005.9
T5,M15_0000064#01,44391168,29.41,39.79,-5010.73,10.11,28.9,48.59,5006.43
T6,M15_0000064#01,44391168,17.74,38.94,-5246.77,1.7,17.99,33.91,5864.0
P3,M15_0000064#01,44391168,-39.67,36.11,-5010.73,-55.92,-40.0,-23.53,5015.38
P4,M15_0000064#01,44391168,-28.92,49.82,-5192.19,-57.18,-29.8,-0.98,5864.0
Pz,M15_0000064#01,44391168,-53.18,48.82,-5574.09,-75.25,-56.64,-34.09,5864.0
O1,M15_0000064#01,44391168,-50.19,343.07,-5864.0,-262.08,-42.68,169.74,5864.0
O2,M15_0000064#01,44391168,73.55,335.14,-5864.0,-167.77,74.36,301.81,5864.0
Fp1,M15_0000076#01,286208,-420.59,37.57,-567.74,-444.98,-421.36,-397.02,494.01
Fp2,M15_0000076#01,286208,14.04,23.49,-86.88,-0.98,14.94,30.15,110.33
F3,M15_0000076#01,286208,-402.89,32.83,-496.7,-428.16,-405.97,-378.94,-242.94
F4,M15_0000076#01,286208,-10.49,15.37,-90.11,-19.95,-10.11,-0.45,62.37
F7,M15_0000076#01,286208,-336.47,43.99,-519.96,-367.85,-336.89,-305.03,-160.61
F8,M15_0000076#01,286208,-374.43,25.1,-509.58,-391.29,-373.75,-357.47,-251.53
Fz,M15_0000076#01,286208,37.35,400.65,-2853.03,-4.03,4.38,14.76,5533.64
C3,M15_0000076#01,286208,-20.94,23.42,-118.2,-36.24,-21.39,-6.0,94.58
C4,M15_0000076#01,286208,-29.5,22.4,-121.78,-43.93,-29.98,-15.48,118.74
Cz,M15_0000076#01,286208,-52.08,17.64,-129.12,-63.44,-52.7,-41.61,71.49
T3,M15_0000076#01,286208,-29.84,45.16,-221.82,-58.79,-28.9,0.63,155.96
T4,M15_0000076#01,286208,-26.92,44.1,-224.32,-55.03,-25.32,2.59,200.52
T5,M15_0000076#01,286208,-516.61,63.21,-792.34,-554.86,-514.95,-475.94,-248.66
T6,M15_0000076#01,286208,-60.07,52.66,-301.99,-93.51,-58.43,-25.32,218.95
P3,M15_0000076#01,286208,-44.82,36.53,-205.18,-68.81,-45.37,-21.03,142.54
P4,M15_0000076#01,286208,-34.49,41.88,-208.4,-61.29,-33.38,-6.35,167.77
Pz,M15_0000076#01,286208,33.6,565.21,-5864.0,-11.01,3.67,21.74,5537.4
O1,M15_0000076#01,286208,-386.2,49.97,-658.3,-416.7,-384.67,-354.25,-176.54
O2,M15_0000076#01,286208,-31.77,63.13,-333.85,-70.96,-30.87,9.04,252.42
Fp1,M15_0000094#01,390656,-13.07,9.67,-80.98,-18.34,-12.97,-7.61,179.58
Fp2,M15_0000094#01,390656,-17.8,8.2,-89.03,-22.1,-17.63,-13.15,168.49
F3,M15_0000094#01,390656,7.38,16.31,-146.83,-1.34,7.07,16.02,223.25
F4,M15_0000094#01,390656,-14.04,15.05,-136.28,-22.64,-14.41,-6.0,199.27
F7,M15_0000094#01,390656,11.82,15.74,-89.93,2.77,11.36,19.95,212.15
F8,M15_0000094#01,390656,-426.54,19.69,-558.8,-439.43,-428.16,-415.09,-242.22
Fz,M15_0000094#01,390656,-29.89,13.63,-157.57,-36.78,-29.8,-23.0,163.66
C3,M15_0000094#01,390656,-18.85,20.42,-216.99,-29.8,-18.88,-8.14,283.74
C4,M15_0000094#01,390656,-418.4,32.2,-614.63,-440.33,-420.1,-397.73,-65.05
Cz,M15_0000094#01,390656,-44.88,24.4,-249.02,-58.07,-45.01,-31.94,304.85
T3,M15_0000094#01,390656,-63.47,22.01,-238.28,-76.86,-64.16,-51.27,167.06
T4,M15_0000094#01,390656,-4.22,20.11,-197.66,-15.84,-4.74,6.17,231.66
T5,M15_0000094#01,390656,-343.2,30.36,-636.46,-361.76,-344.23,-325.79,-33.73
T6,M15_0000094#01,390656,-11.22,24.5,-283.56,-24.96,-11.54,1.7,266.02
P3,M15_0000094#01,390656,-416.05,33.34,-722.18,-436.93,-417.24,-395.77,-48.05
P4,M15_0000094#01,390656,-269.96,45.02,-547.16,-301.99,-273.18,-239.89,95.3
Pz,M15_0000094#01,390656,-14.15,27.17,-292.33,-28.19,-14.05,0.09,334.92
O1,M15_0000094#01,390656,-112.6,35.92,-425.83,-135.74,-114.09,-90.46,240.79
O2,M15_0000094#01,390656,6.9,29.13,-312.91,-9.22,6.89,22.82,327.05
Fp1,M15_0000095#01,20834816,-33.31,43.84,-5864.0,-48.77,-30.33,-17.63,5602.72
Fp2,M15_0000095#01,20834816,22.74,16.91,-539.11,12.97,24.43,32.84,2507.11
F3,M15_0000095#01,20834816,7.64,24.54,-552.0,-6.17,6.89,20.13,783.39
F4,M15_0000095#01,20834816,-253.91,48.59,-1373.95,-279.8,-263.16,-244.19,808.44
F7,M15_0000095#01,20834816,-14.36,29.68,-575.26,-31.05,-13.15,2.06,1095.31
F8,M15_0000095#01,20834816,-433.74,65.2,-5505.55,-463.23,-435.67,-406.32,366.24
Fz,M15_0000095#01,20834816,-33.29,20.82,-595.3,-44.47,-33.55,-22.28,730.6
C3,M15_0000095#01,20834816,-276.8,62.41,-838.33,-312.37,-290.54,-258.86,760.48
C4,M15_0000095#01,20834816,-486.63,75.28,-5493.02,-525.51,-489.0,-450.53,294.12
Cz,M15_0000095#01,20834816,-133.61,54.13,-651.67,-168.13,-126.79,-97.44,1283.04
T3,M15_0000095#01,20834816,-239.1,57.41,-786.97,-279.8,-242.4,-206.61,669.93
T4,M15_0000095#01,20834816,-85.19,41.29,-2026.25,-107.46,-86.17,-64.16,5864.0
T5,M15_0000095#01,20834816,-419.72,79.73,-5507.16,-464.48,-431.38,-385.21,416.88
T6,M15_0000095#01,20834816,-227.11,74.61,-1339.95,-275.33,-231.48,-189.25,4038.63
P3,M15_0000095#01,20834816,-505.72,78.31,-5530.24,-540.18,-515.49,-478.09,2136.31
P4,M15_0000095#01,20834816,-465.59,67.74,-5509.13,-506.72,-468.6,-428.87,671.54
Pz,M15_0000095#01,20834816,-84.92,53.81,-615.35,-116.77,-82.41,-51.63,1106.05
O1,M15_0000095#01,20834816,-166.63,73.48,-735.25,-205.0,-156.14,-121.78,915.46
O2,M15_0000095#01,20834816,-128.65,82.45,-736.68,-182.63,-112.3,-73.46,2386.13
Fp1,M15_0000099#01,23125248,1209.29,387.9,-476.3,1300.75,1373.41,1415.47,4354.31
Fp2,M15_0000099#01,23125248,1459.0,397.36,-232.56,1513.18,1611.96,1700.01,4431.8
F3,M15_0000099#01,23125248,-0.1,18.59,-4828.91,-11.36,-0.45,10.47,2559.9
F4,M15_0000099#01,23125248,-0.08,89.91,-5839.66,-20.31,-0.63,19.95,5589.3
F7,M15_0000099#01,23125248,-251.91,272.97,-1658.85,-275.33,-162.58,-75.43,5532.03
F8,M15_0000099#01,23125248,1407.98,383.09,49.3,1447.32,1550.4,1647.22,4404.78
Fz,M15_0000099#01,23125248,0.14,23.15,-5606.66,-15.84,-0.45,14.94,3792.21
C3,M15_0000099#01,23125248,1377.72,394.94,128.58,1434.26,1534.65,1616.08,4403.88
C4,M15_0000099#01,23125248,1386.44,386.17,-401.31,1448.75,1540.38,1616.79,4400.84
Cz,M15_0000099#01,23125248,981.08,411.4,-781.6,1054.51,1158.66,1216.82,4309.39
T3,M15_0000099#01,23125248,1393.02,409.76,-148.98,1431.75,1533.76,1645.96,4379.01
T4,M15_0000099#01,23125248,1443.37,398.3,50.02,1471.12,1614.29,1685.16,4418.38
T5,M15_0000099#01,23125248,1382.34,403.54,-91.18,1458.24,1530.18,1620.37,4383.66
T6,M15_0000099#01,23125248,1459.57,393.7,147.55,1499.93,1611.78,1689.81,4454.17
P3,M15_0000099#01,23125248,-0.08,28.02,-5614.0,-16.2,-0.45,15.3,3733.87
P4,M15_0000099#01,23125248,0.41,35.28,-5665.0,-25.68,-0.27,25.68,3946.29
Pz,M15_0000099#01,23125248,0.01,49.52,-5679.67,-19.95,-0.98,20.31,4841.61
O1,M15_0000099#01,23125248,1343.41,387.98,4.74,1404.37,1486.87,1580.64,3903.88
O2,M15_0000099#01,23125248,1421.61,394.29,248.66,1478.64,1588.34,1650.62,4485.49
Fp1,M15_0000105#01,235520,-7.67,58.48,-629.13,-21.74,-8.14,5.46,719.5
Fp2,M15_0000105#01,235520,-8.59,41.85,-223.79,-28.19,-11.72,4.74,275.86
F3,M15_0000105#01,235520,44.5,469.44,-5554.4,-5.82,4.92,20.31,5554.4
F4,M15_0000105#01,235520,27.16,660.0,-5673.59,-17.09,6.0,28.72,5646.39
F7,M15_0000105#01,235520,-9.7,32.28,-278.01,-25.14,-11.01,3.13,297.52
F8,M15_0000105#01,235520,-0.08,30.52,-250.45,-16.2,0.45,17.27,152.2
Fz,M15_0000105#01,235520,34.69,483.03,-5574.27,-10.11,2.59,22.1,5574.09
C3,M15_0000105#01,235520,-3.35,24.83,-291.97,-14.59,-3.49,7.43,290.9
C4,M15_0000105#01,235520,-27.16,28.07,-193.18,-41.07,-26.4,-12.26,157.93
Cz,M15_0000105#01,235520,-3.41,30.53,-315.59,-16.37,-4.38,7.96,308.08
T3,M15_0000105#01,235520,-33.5,31.08,-356.39,-45.9,-34.09,-22.82,414.38
T4,M15_0000105#01,235520,2.41,27.64,-181.02,-14.05,2.77,18.88,366.24
T5,M15_0000105#01,235520,-16.36,32.15,-427.8,-29.62,-16.73,-4.21,295.91
T6,M15_0000105#01,235520,-35.17,30.58,-287.5,-53.42,-35.52,-17.27,184.95
P3,M15_0000105#01,235520,44.23,547.28,-5595.03,-9.04,3.49,23.71,5580.17
P4,M15_0000105#01,235520,21.69,522.1,-5835.72,-18.16,1.34,25.5,5621.15
Pz,M15_0000105#01,235520,-28.32,26.88,-326.51,-41.97,-28.36,-14.41,182.81
O1,M15_0000105#01,235520,-463.61,36.73,-697.85,-481.49,-464.48,-447.84,109.79
O2,M15_0000105#01,235520,-16.2,51.68,-701.43,-33.91,-16.02,2.06,512.98
Fp1,M15_0000106#01,21768448,-7.62,58.89,-4986.39,-26.93,-5.46,10.29,5482.82
Fp2,M15_0000106#01,21768448,-13.34,57.83,-4985.85,-31.77,-12.44,4.21,5520.94
F3,M15_0000106#01,21768448,-0.16,56.73,-5515.75,-6.71,-0.63,6.17,5010.73
F4,M15_0000106#01,21768448,-0.15,103.75,-5663.21,-13.33,-0.27,13.33,5658.91
F7,M15_0000106#01,21768448,-30.1,61.85,-4985.14,-49.3,-28.72,-10.65,5543.31
F8,M15_0000106#01,21768448,7.56,57.56,-4990.15,-11.01,7.25,26.04,5083.03
Fz,M15_0000106#01,21768448,-0.16,97.58,-5864.0,-11.01,-0.63,9.93,5864.0
C3,M15_0000106#01,21768448,-6.52,50.96,-4989.61,-16.02,-6.17,2.95,5216.35
C4,M15_0000106#01,21768448,-20.0,62.78,-5862.03,-34.99,-19.95,-5.1,5864.0
Cz,M15_0000106#01,21768448,-19.52,53.92,-4988.18,-34.63,-19.42,-4.38,5381.17
T3,M15_0000106#01,21768448,-83.77,104.02,-5864.0,-116.23,-79.01,-46.62,5864.0
T4,M15_0000106#01,21768448,-19.4,65.46,-5063.16,-41.97,-19.06,3.13,5008.4
T5,M15_0000106#01,21768448,-46.31,80.89,-4979.41,-70.24,-42.5,-21.56,5787.05
T6,M15_0000106#01,21768448,-26.47,67.07,-5864.0,-47.87,-26.93,-5.64,5864.0
P3,M15_0000106#01,21768448,-0.1,64.88,-5556.37,-12.62,-0.27,11.72,5543.84
P4,M15_0000106#01,21768448,-1.36,110.41,-5863.11,-20.13,-2.06,17.45,5863.11
Pz,M15_0000106#01,21768448,-318.92,95.58,-5864.0,-366.6,-342.97,-296.8,5864.0
O1,M15_0000106#01,21768448,-532.72,123.69,-5849.86,-554.5,-532.31,-507.97,1740.81
O2,M15_0000106#01,21768448,2.62,66.14,-4980.84,-17.27,2.06,21.56,5734.08
Fp1,M15_0000138#01,351232,49.95,37.34,-689.61,42.32,51.45,60.58,956.62
Fp2,M15_0000138#01,351232,72.36,36.57,-661.16,67.56,74.0,80.62,982.93
F3,M15_0000138#01,351232,30.86,35.01,-710.73,25.68,32.12,38.39,921.36
F4,M15_0000138#01,351232,65.49,37.35,-686.39,60.94,66.84,73.1,961.99
F7,M15_0000138#01,351232,74.24,35.17,-697.49,68.27,75.25,82.77,957.69
F8,M15_0000138#01,351232,77.36,36.6,-660.62,72.03,78.47,85.45,993.13
Fz,M15_0000138#01,351232,-33.21,30.17,-675.48,-38.21,-32.3,-26.22,685.86
C3,M15_0000138#01,351232,38.23,27.19,-529.8,33.73,39.28,44.83,946.96
C4,M15_0000138#01,351232,-53.22,33.29,-718.78,-59.68,-51.09,-44.11,842.62
Cz,M15_0000138#01,351232,54.93,33.22,-618.57,50.73,56.28,61.65,910.81
T3,M15_0000138#01,351232,60.86,36.98,-779.27,55.57,62.01,68.63,948.92
T4,M15_0000138#01,351232,29.47,39.79,-697.49,24.61,30.69,36.42,938.37
T5,M15_0000138#01,351232,42.32,34.04,-533.2,37.49,43.4,49.3,950.36
T6,M15_0000138#01,351232,43.88,219.54,-5566.04,38.92,45.19,51.45,5864.0
P3,M15_0000138#01,351232,43.11,42.41,-797.17,38.21,44.11,50.38,940.15
P4,M15_0000138#01,351232,42.64,41.03,-703.75,36.6,42.86,48.77,964.49
Pz,M15_0000138#01,351232,79.58,42.99,-709.84,74.0,80.08,85.81,1005.65
O1,M15_0000138#01,351232,30.44,154.88,-5864.0,23.0,31.23,38.92,5864.0
O2,M15_0000138#01,351232,49.06,240.13,-5543.84,43.76,51.09,58.43,5644.06
Fp1,M15_0000139#01,22192640,49.97,31.22,-508.15,42.14,50.73,59.86,2482.41
Fp2,M15_0000139#01,22192640,95.82,39.51,-573.11,87.24,98.7,113.91,2486.17
F3,M15_0000139#01,22192640,29.61,23.95,-1156.16,21.92,29.8,37.31,2392.76
F4,M15_0000139#01,22192640,34.84,30.06,-542.51,27.29,33.55,41.25,2411.55
F7,M15_0000139#01,22192640,14.03,36.52,-1155.44,-0.63,10.65,25.86,2515.88
F8,M15_0000139#01,22192640,39.09,29.31,-401.13,29.8,37.31,47.16,2422.1
Fz,M15_0000139#01,22192640,-16.64,23.73,-437.46,-26.04,-18.52,-10.11,2361.62
C3,M15_0000139#01,22192640,68.87,49.11,-830.63,60.22,69.53,81.16,2428.01
C4,M15_0000139#01,22192640,-287.32,52.37,-970.04,-308.43,-294.48,-269.6,2092.46
Cz,M15_0000139#01,22192640,31.63,45.48,-760.84,17.09,25.14,42.14,2386.49
T3,M15_0000139#01,22192640,47.83,35.15,-582.06,37.85,45.9,57.53,2412.8
T4,M15_0000139#01,22192640,-2.09,35.17,-529.8,-15.3,-2.59,13.33,2376.11
T5,M15_0000139#01,22192640,61.74,49.14,-824.37,54.31,62.01,72.39,2431.95
T6,M15_0000139#01,22192640,35.22,36.74,-502.25,24.79,35.34,47.87,2417.63
P3,M15_0000139#01,22192640,35.59,42.9,-681.56,26.04,35.17,48.77,2412.26
P4,M15_0000139#01,22192640,85.87,50.89,-781.06,81.16,90.82,103.35,2473.11
Pz,M15_0000139#01,22192640,84.12,50.86,-855.69,74.0,82.23,93.68,2447.7
O1,M15_0000139#01,22192640,56.63,50.52,-873.05,43.04,52.52,64.87,2407.43
O2,M15_0000139#01,22192640,75.67,53.59,-910.81,60.4,78.65,95.12,3714.0
Fp1,M15_0000151#01,16898048,-10.77,23.88,-889.69,-21.56,-12.08,-2.95,3629.17
Fp2,M15_0000151#01,16898048,4.24,25.74,-617.67,-9.75,2.95,16.02,3640.99
F3,M15_0000151#01,16898048,-80.11,25.11,-489.9,-93.33,-82.41,-67.56,3647.43
F4,M15_0000151#01,16898048,-54.53,21.57,-452.14,-66.66,-54.31,-42.14,3675.7
F7,M15_0000151#01,16898048,-73.58,37.51,-1290.55,-91.0,-75.43,-59.15,3676.06
F8,M15_0000151#01,16898048,-74.27,36.49,-573.83,-94.76,-75.43,-54.49,3658.52
Fz,M15_0000151#01,16898048,-90.56,19.26,-505.11,-102.81,-95.65,-82.59,3644.74
C3,M15_0000151#01,16898048,-102.89,25.56,-631.99,-115.16,-106.39,-92.25,3646.89
C4,M15_0000151#01,16898048,-2.87,18.83,-398.81,-12.8,-2.95,6.71,3686.62
Cz,M15_0000151#01,16898048,-24.37,14.63,-425.11,-32.12,-24.61,-16.55,3690.02
T3,M15_0000151#01,16898048,-103.67,67.14,-1269.62,-135.2,-114.44,-77.04,5573.91
T4,M15_0000151#01,16898048,-88.88,47.17,-1377.35,-109.43,-90.82,-69.17,3683.22
T5,M15_0000151#01,16898048,-95.4,30.88,-505.65,-112.3,-99.59,-81.34,3657.63
T6,M15_0000151#01,16898048,-145.53,66.4,-1799.33,-169.2,-148.27,-122.14,5573.37
P3,M15_0000151#01,16898048,-78.78,28.95,-540.01,-96.19,-84.02,-65.41,3663.0
P4,M15_0000151#01,16898048,-67.78,25.5,-502.96,-86.35,-68.63,-50.56,3664.61
Pz,M15_0000151#01,16898048,-79.74,26.99,-516.74,-99.59,-85.63,-63.26,3655.3
O1,M15_0000151#01,16898048,-95.92,37.88,-490.97,-116.05,-99.59,-81.16,2692.87
O2,M15_0000151#01,16898048,-109.33,59.48,-876.45,-131.62,-112.65,-93.33,5547.78
Fp1,M15_0000186#01,14784256,11.39,31.22,-318.63,-3.31,10.83,25.68,2082.44
Fp2,M15_0000186#01,14784256,8.33,36.35,-298.05,-8.32,7.96,24.43,1249.93
F3,M15_0000186#01,14784256,0.09,52.78,-5512.71,-17.45,-6.71,21.03,5516.28
F4,M15_0000186#01,14784256,-0.17,102.42,-5615.79,-30.33,-10.65,35.52,5588.94
F7,M15_0000186#01,14784256,-22.22,36.6,-343.15,-44.47,-23.0,-0.09,2433.56
F8,M15_0000186#01,14784256,-47.23,39.88,-346.01,-69.7,-48.59,-25.68,1192.49
Fz,M15_0000186#01,14784256,-33.17,35.71,-382.16,-52.35,-33.91,-14.59,965.21
C3,M15_0000186#01,14784256,-23.13,26.11,-310.94,-36.42,-23.53,-10.47,790.01
C4,M15_0000186#01,14784256,-29.88,43.29,-618.75,-51.09,-30.87,-9.93,1907.06
Cz,M15_0000186#01,14784256,162.12,42.81,-210.54,137.35,166.34,188.35,591.72
T3,M15_0000186#01,14784256,-335.06,88.4,-709.84,-403.46,-352.64,-263.87,1182.11
T4,M15_0000186#01,14784256,-53.88,73.44,-1044.49,-85.45,-56.82,-26.93,5227.09
T5,M15_0000186#01,14784256,-34.09,67.79,-669.75,-72.21,-36.42,1.34,3385.79
T6,M15_0000186#01,14784256,-57.97,87.82,-919.57,-96.37,-61.83,-24.96,5539.01
P3,M15_0000186#01,14784256,-0.07,101.66,-5547.96,-50.56,-21.74,60.22,5542.41
P4,M15_0000186#01,14784256,-0.34,136.88,-5609.7,-73.46,-30.87,87.6,5547.78
Pz,M15_0000186#01,14784256,-36.36,41.19,-420.1,-57.53,-37.13,-16.02,1762.82
O1,M15_0000186#01,14784256,-62.25,93.53,-5864.0,-95.3,-65.95,-34.99,5864.0
O2,M15_0000186#01,14784256,-15.03,56.93,-451.42,-43.76,-16.37,12.08,5520.58
Fp1,M15_0000240#01,195328,211.64,15.17,109.97,199.99,209.65,222.36,276.22
Fp2,M15_0000240#01,195328,633.38,16.85,501.17,618.21,633.24,648.63,735.25
F3,M15_0000240#01,195328,8.36,50.82,-240.97,-37.67,9.4,54.67,327.58
F4,M15_0000240#01,195328,5.51,61.73,-455.36,-46.44,6.71,57.89,729.7
F7,M15_0000240#01,195328,624.16,8.7,519.78,619.28,624.12,628.95,744.73
F8,M15_0000240#01,195328,615.0,10.19,497.95,609.26,614.81,620.72,756.54
Fz,M15_0000240#01,195328,5.71,69.77,-279.8,-60.4,6.89,72.93,357.65
C3,M15_0000240#01,195328,213.21,12.05,104.24,205.18,212.87,221.28,270.14
C4,M15_0000240#01,195328,419.87,13.59,299.49,409.9,419.03,429.95,485.6
Cz,M15_0000240#01,195328,104.05,6.48,19.24,101.02,104.24,107.64,153.99
T3,M15_0000240#01,195328,166.92,16.74,41.43,154.35,164.37,179.23,300.38
T4,M15_0000240#01,195328,617.24,9.06,493.3,612.84,617.14,621.79,697.85
T5,M15_0000240#01,195328,618.03,12.69,484.53,608.9,618.21,627.34,701.07
T6,M15_0000240#01,195328,616.65,9.04,494.37,612.48,616.24,620.18,684.96
P3,M15_0000240#01,195328,11.48,97.94,-459.47,-80.98,12.97,104.96,599.42
P4,M15_0000240#01,195328,5.48,129.99,-562.55,-119.45,6.53,131.27,705.72
Pz,M15_0000240#01,195328,6.35,103.0,-448.56,-90.28,8.32,103.89,594.59
O1,M15_0000240#01,195328,617.69,22.07,461.44,598.88,616.42,637.0,717.89
O2,M15_0000240#01,195328,145.25,10.18,23.53,139.68,145.22,151.13,207.68
Fp1,M15_0000241#01,67664128,158.86,33.07,-5010.73,143.79,160.08,175.65,1240.27
Fp2,M15_0000241#01,67664128,415.29,147.17,-5010.73,279.62,408.29,545.73,3039.51
F3,M15_0000241#01,67664128,1.2,79.35,-5864.0,-35.88,0.81,36.78,5738.01
F4,M15_0000241#01,67664128,0.29,102.28,-5864.0,-38.74,0.27,38.39,5761.99
F7,M15_0000241#01,67664128,474.22,135.18,-5010.73,354.6,476.83,602.28,1915.47
F8,M15_0000241#01,67664128,415.69,157.1,-5010.73,273.0,408.83,565.24,5605.41
Fz,M15_0000241#01,67664128,0.46,87.24,-5864.0,-53.78,0.09,53.6,5681.11
C3,M15_0000241#01,67664128,-19.55,117.84,-5010.73,-124.82,-29.98,83.13,5011.09
C4,M15_0000241#01,67664128,66.04,130.27,-5010.73,-42.32,43.58,162.23,1398.47
Cz,M15_0000241#01,67664128,10.56,90.05,-5010.73,-69.17,8.5,98.52,1049.32
T3,M15_0000241#01,67664128,17.52,129.39,-5010.73,-101.92,10.83,144.15,3100.53
T4,M15_0000241#01,67664128,323.2,187.34,-5010.73,148.8,315.77,485.78,5547.24
T5,M15_0000241#01,67664128,446.17,138.93,-5010.73,321.32,429.59,576.33,5011.09
T6,M15_0000241#01,67664128,447.07,140.36,-5797.61,322.21,438.18,584.92,5011.09
P3,M15_0000241#01,67664128,2.96,108.94,-5864.0,-69.53,2.59,74.0,5864.0
P4,M15_0000241#01,67664128,0.55,131.02,-5864.0,-106.03,0.27,106.03,5798.14
Pz,M15_0000241#01,67664128,0.46,117.2,-5864.0,-74.71,0.27,74.36,5651.04
O1,M15_0000241#01,67664128,442.03,139.27,-5519.51,327.94,426.55,570.96,5377.59
O2,M15_0000241#01,67664128,-159.77,130.26,-5010.73,-276.94,-175.83,-56.28,5011.09
Fp1,M15_0000270#01,14269696,72.44,128.58,-5864.0,56.1,74.36,90.46,5864.0
Fp2,M15_0000270#01,14269696,34.96,129.52,-5864.0,21.21,36.78,50.2,5864.0
F3,M15_0000270#01,14269696,-2.11,244.73,-5864.0,-74.89,-2.24,80.98,5864.0
F4,M15_0000270#01,14269696,-2.54,846.56,-5864.0,-408.47,9.75,450.88,5864.0
F7,M15_0000270#01,14269696,-126.91,145.73,-5864.0,-173.68,-123.75,-80.98,5864.0
F8,M15_0000270#01,14269696,67.04,80.91,-5864.0,54.49,68.27,81.34,5864.0
Fz,M15_0000270#01,14269696,-59.23,93.15,-5864.0,-79.37,-56.1,-38.03,5864.0
C3,M15_0000270#01,14269696,-194.83,149.77,-5864.0,-224.32,-192.47,-163.48,5864.0
C4,M15_0000270#01,14269696,-106.99,141.41,-5864.0,-128.22,-104.24,-83.84,5864.0
Cz,M15_0000270#01,14269696,-137.58,138.0,-5864.0,-163.66,-137.17,-112.65,5864.0
T3,M15_0000270#01,14269696,-32.45,140.98,-5864.0,-56.28,-27.65,-5.82,5813.0
T4,M15_0000270#01,14269696,58.89,80.25,-5864.0,38.21,61.11,81.52,5864.0
T5,M15_0000270#01,14269696,209.1,155.15,-5864.0,177.44,215.2,245.26,5864.0
T6,M15_0000270#01,14269696,110.68,91.58,-5864.0,90.46,111.04,131.44,5864.0
P3,M15_0000270#01,14269696,5.45,290.76,-5864.0,-112.47,4.03,139.5,5864.0
P4,M15_0000270#01,14269696,-1.47,161.73,-5864.0,-43.76,-1.34,46.98,5864.0
Pz,M15_0000270#01,14269696,-1.08,1282.45,-5864.0,-689.08,12.08,757.26,5864.0
O1,M15_0000270#01,14269696,-504.31,167.33,-5864.0,-579.55,-540.18,-444.62,5864.0
O2,M15_0000270#01,14269696,-278.82,160.92,-5864.0,-329.01,-292.69,-248.48,5864.0
Fp1,M15_0000298#01,307712,586.3,8.45,511.73,581.52,585.82,590.65,682.1
Fp2,M15_0000298#01,307712,81.55,14.72,-7.07,71.14,81.16,91.72,169.56
F3,M15_0000298#01,307712,31.64,369.74,-5507.34,-33.2,4.21,39.82,5517.18
F4,M15_0000298#01,307712,27.96,569.5,-5571.05,-247.05,1.52,236.85,5568.0
F7,M15_0000298#01,307712,574.07,8.46,519.96,569.35,573.83,578.48,669.93
F8,M15_0000298#01,307712,47.07,12.33,-36.78,39.1,46.62,54.85,126.43
Fz,M15_0000298#01,307712,-57.01,158.46,-5527.56,-149.7,-60.22,26.75,2812.95
C3,M15_0000298#01,307712,585.78,6.2,553.78,582.42,585.64,588.86,691.58
C4,M15_0000298#01,307712,67.9,16.93,12.44,55.39,66.3,79.73,159.18
Cz,M15_0000298#01,307712,325.64,20.73,256.71,309.87,323.82,340.65,430.84
T3,M15_0000298#01,307712,599.43,9.67,524.97,594.05,599.42,605.15,703.93
T4,M15_0000298#01,307712,91.44,33.91,-22.28,64.34,86.88,117.84,226.29
T5,M15_0000298#01,307712,601.31,10.77,530.16,595.66,602.1,606.4,730.42
T6,M15_0000298#01,307712,57.01,27.46,-57.89,35.7,55.92,77.58,172.25
P3,M15_0000298#01,307712,39.45,393.48,-5543.67,-51.09,11.01,69.35,5540.62
P4,M15_0000298#01,307712,-1.42,252.02,-1855.88,-37.85,-15.48,5.64,5522.01
Pz,M15_0000298#01,307712,36.62,744.94,-5864.0,-384.49,14.41,398.63,5574.8
O1,M15_0000298#01,307712,-76.89,21.57,-182.98,-93.33,-75.79,-60.58,23.89
O2,M15_0000298#01,307712,7.17,24.32,-90.82,-11.72,6.35,25.32,121.6
Fp1,M15_0000299,37925632,384.82,128.62,-5864.0,345.66,370.53,420.1,5864.0
Fp2,M15_0000299,37925632,-22.82,106.53,-5864.0,-40.53,-24.25,-2.06,5864.0
F3,M15_0000299,37925632,-0.63,162.21,-5864.0,-30.15,-0.98,26.75,5716.54
F4,M15_0000299,37925632,-1.93,597.92,-5864.0,-194.62,0.27,192.47,5864.0
F7,M15_0000299,37925632,396.45,151.43,-5864.0,323.82,402.39,468.42,5864.0
F8,M15_0000299,37925632,5.92,99.53,-5363.99,-11.54,5.28,26.93,5864.0
Fz,M15_0000299,37925632,-10.3,241.4,-5864.0,-83.13,-7.61,64.16,5864.0
C3,M15_0000299,37925632,406.8,139.07,-5864.0,344.94,391.47,471.82,5864.0
C4,M15_0000299,37925632,-14.51,97.03,-5864.0,-26.75,-14.76,0.98,5864.0
Cz,M15_0000299,37925632,22.18,111.86,-5864.0,2.59,17.45,30.69,5864.0
T3,M15_0000299,37925632,191.05,205.62,-5864.0,56.82,113.01,324.54,5864.0
T4,M15_0000299,37925632,-166.85,102.15,-5864.0,-183.88,-165.27,-145.94,5864.0
T5,M15_0000299,37925632,484.28,131.61,-5864.0,453.57,483.63,522.29,5864.0
T6,M15_0000299,37925632,-184.26,105.99,-5144.05,-217.7,-191.57,-154.53,5864.0
P3,M15_0000299,37925632,6.96,244.75,-5864.0,-41.61,4.74,52.17,5864.0
P4,M15_0000299,37925632,-20.55,128.3,-5864.0,-32.66,-19.24,-5.64,5843.42
Pz,M15_0000299,37925632,-2.4,767.5,-5864.0,-328.3,0.27,327.58,5864.0
O1,M15_0000299,37925632,-143.27,114.52,-5864.0,-176.72,-136.99,-104.42,5513.6
O2,M15_0000299,37925632,-207.48,110.21,-5010.73,-253.14,-218.42,-167.95,5038.65
Fp1,M15_0000310#01,445952,135.71,28.22,-51.63,118.38,136.63,153.99,259.94
Fp2,M15_0000310#01,445952,257.79,37.37,-341.54,232.73,258.5,283.2,477.19
F3,M15_0000310#01,445952,71.85,19.05,-109.25,60.4,72.93,84.38,214.3
F4,M15_0000310#01,445952,-22.63,37.07,-729.88,-48.23,-23.18,2.59,148.98
F7,M15_0000310#01,445952,59.71,29.56,-132.34,41.79,61.29,79.55,196.94
F8,M15_0000310#01,445952,140.8,34.72,-86.53,117.49,140.75,163.66,302.89
Fz,M15_0000310#01,445952,-37.67,21.49,-171.71,-51.99,-37.67,-23.18,98.34
C3,M15_0000310#01,445952,86.38,15.7,-98.52,76.5,86.88,97.08,223.61
C4,M15_0000310#01,445952,-24.71,39.25,-246.16,-52.7,-24.79,2.42,151.67
Cz,M15_0000310#01,445952,171.64,28.22,-3.85,152.56,172.07,191.22,332.41
T3,M15_0000310#01,445952,-18.03,38.67,-251.35,-43.04,-16.2,8.32,150.95
T4,M15_0000310#01,445952,-561.61,43.49,-1267.47,-591.9,-561.84,-531.06,-394.15
T5,M15_0000310#01,445952,600.85,37.12,351.56,576.69,601.57,625.01,811.31
T6,M15_0000310#01,445952,-132.55,51.84,-385.39,-169.92,-135.74,-96.73,67.38
P3,M15_0000310#01,445952,82.27,29.65,-80.26,62.9,82.41,101.56,237.75
P4,M15_0000310#01,445952,-204.92,98.04,-483.81,-287.14,-217.88,-121.96,68.45
Pz,M15_0000310#01,445952,-76.71,30.44,-306.11,-96.73,-77.22,-57.18,110.51
O1,M15_0000310#01,445952,-348.83,52.54,-600.31,-388.07,-348.34,-309.15,-167.95
O2,M15_0000310#01,445952,-8.34,35.16,-249.91,-31.77,-8.86,14.23,173.86
Fp1,M15_0000311#01,15131648,225.4,83.03,-133.23,152.74,225.76,299.31,1122.69
Fp2,M15_0000311#01,15131648,163.09,44.32,-88.85,132.7,163.12,193.36,1983.3
F3,M15_0000311#01,15131648,7.5,22.83,-269.24,-6.71,7.96,21.56,965.57
F4,M15_0000311#01,15131648,-90.34,64.92,-441.04,-141.65,-86.88,-39.82,850.14
F7,M15_0000311#01,15131648,85.87,92.42,-262.98,4.56,68.27,170.82,964.14
F8,M15_0000311#01,15131648,57.37,41.06,-217.34,30.15,55.39,82.77,1191.59
Fz,M15_0000311#01,15131648,37.22,64.41,-324.9,-17.81,39.82,93.51,1009.41
C3,M15_0000311#01,15131648,-72.49,165.98,-516.02,-244.01,-76.5,84.92,698.2
C4,M15_0000311#01,15131648,-68.12,63.68,-362.84,-119.28,-69.17,-17.63,839.4
Cz,M15_0000311#01,15131648,-85.75,150.82,-481.66,-235.6,-90.64,67.02,773.72
T3,M15_0000311#01,15131648,31.47,84.75,-359.97,-30.69,42.86,99.41,984.0
T4,M15_0000311#01,15131648,-359.88,232.19,-1125.02,-587.25,-278.55,-172.43,1267.65
T5,M15_0000311#01,15131648,506.15,43.21,-276.04,478.44,502.78,530.16,1518.01
T6,M15_0000311#01,15131648,-148.6,76.82,-643.08,-196.23,-132.16,-93.86,1875.57
P3,M15_0000311#01,15131648,35.79,38.62,-649.35,8.14,36.06,63.08,1000.28
P4,M15_0000311#01,15131648,-431.07,46.54,-719.68,-464.31,-431.38,-398.09,505.82
Pz,M15_0000311#01,15131648,-100.87,47.62,-536.07,-134.49,-106.93,-71.14,925.48
O1,M15_0000311#01,15131648,-435.98,162.53,-855.51,-580.27,-483.1,-277.65,1667.44
O2,M15_0000311#01,15131648,-45.13,62.96,-455.18,-92.61,-43.04,1.7,882.53
Fp1,M15_0000312#01,6788864,368.13,175.8,-5864.0,352.1,369.28,385.92,5864.0
Fp2,M15_0000312#01,6788864,233.68,178.16,-5864.0,207.32,228.8,250.99,5864.0
F3,M15_0000312#01,6788864,13.13,132.73,-5864.0,9.04,19.24,28.72,5864.0
F4,M15_0000312#01,6788864,-5.62,221.79,-5864.0,-32.12,-11.72,11.18,5864.0
F7,M15_0000312#01,6788864,273.06,202.26,-5864.0,251.17,272.82,294.12,5864.0
F8,M15_0000312#01,6788864,59.28,204.16,-5864.0,31.05,54.49,80.62,5864.0
Fz,M15_0000312#01,6788864,134.32,319.19,-5864.0,119.99,135.92,150.24,5864.0
C3,M15_0000312#01,6788864,215.05,198.87,-5864.0,203.39,219.31,232.2,5864.0
C4,M15_0000312#01,6788864,21.91,315.68,-5864.0,-3.67,18.34,42.86,5864.0
Cz,M15_0000312#01,6788864,145.45,162.15,-5864.0,128.22,143.08,159.36,5864.0
T3,M15_0000312#01,6788864,126.81,216.3,-5864.0,102.63,123.21,144.51,5864.0
T4,M15_0000312#01,6788864,-19.68,366.22,-5864.0,-50.56,-21.56,7.96,5864.0
T5,M15_0000312#01,6788864,470.86,188.85,-5864.0,450.88,474.69,498.84,5864.0
T6,M15_0000312#01,6788864,-46.56,170.37,-5864.0,-76.33,-49.66,-21.74,5864.0
P3,M15_0000312#01,6788864,61.03,190.52,-5864.0,40.53,58.07,76.33,5864.0
P4,M15_0000312#01,6788864,-273.2,183.3,-5864.0,-341.9,-291.25,-215.91,5788.12
Pz,M15_0000312#01,6788864,12.32,188.76,-5864.0,-13.69,6.0,27.65,5864.0
O1,M15_0000312#01,6788864,-131.85,181.11,-5864.0,-161.33,-136.63,-109.43,5864.0
O2,M15_0000312#01,6788864,56.06,206.74,-5864.0,34.45,62.19,90.11,5864.0
Fp1,M15_0000333#01,43275264,268.52,72.95,-5010.73,245.44,262.8,289.82,2282.88
Fp2,M15_0000333#01,43275264,-142.56,183.2,-5864.0,-158.11,-71.31,-45.19,5864.0
F3,M15_0000333#01,43275264,104.06,160.17,-5010.73,-34.45,136.1,249.38,824.37
F4,M15_0000333#01,43275264,-92.22,87.48,-5010.73,-90.82,-69.88,-57.89,2432.13
F7,M15_0000333#01,43275264,6.72,80.95,-5010.73,-11.54,11.9,27.83,1723.63
F8,M15_0000333#01,43275264,54.82,102.75,-5864.0,16.91,46.44,76.5,5864.0
Fz,M15_0000333#01,43275264,40.29,99.93,-5864.0,8.14,32.84,52.52,5864.0
C3,M15_0000333#01,43275264,-58.16,74.3,-5010.73,-88.49,-77.4,-40.53,380.55
C4,M15_0000333#01,43275264,74.28,92.4,-5010.73,57.0,79.73,93.33,4868.64
Cz,M15_0000333#01,43275264,-153.78,85.51,-5010.73,-153.81,-132.88,-120.35,256.71
T3,M15_0000333#01,43275264,-136.78,100.48,-5010.73,-151.49,-128.94,-108.54,4709.9
T4,M15_0000333#01,43275264,80.34,116.21,-5028.8,18.34,45.01,92.61,5386.36
T5,M15_0000333#01,43275264,-65.23,139.32,-5010.73,-193.9,-33.38,41.79,848.35
T6,M15_0000333#01,43275264,25.81,96.88,-5010.73,-30.87,2.77,73.64,2121.46
P3,M15_0000333#01,43275264,-840.89,114.72,-5010.73,-899.89,-871.08,-838.33,1050.75
P4,M15_0000333#01,43275264,-164.29,97.68,-5010.73,-230.95,-133.77,-109.79,674.76
Pz,M15_0000333#01,43275264,-42.88,86.0,-5010.73,-78.65,-49.66,-24.25,1337.44
O1,M15_0000333#01,43275264,-14.04,84.39,-5010.73,-51.45,-33.02,-11.36,2101.41
O2,M15_0000333#01,43275264,96.23,105.34,-5010.73,58.97,95.65,141.82,4095.0
Fp1,M15_0000433#01,177920,-928.71,417.15,-5864.0,-921.19,-890.94,-864.28,891.84
Fp2,M15_0000433#01,177920,33.58,60.98,-5090.01,10.11,31.41,52.7,2013.9
F3,M15_0000433#01,177920,98.52,1280.5,-5864.0,-12.97,45.19,105.14,5864.0
F4,M15_0000433#01,177920,-83.07,2378.53,-5864.0,-381.99,-25.32,293.04,5847.71
F7,M15_0000433#01,177920,57.15,44.55,-5089.29,37.13,56.46,76.5,1650.44
F8,M15_0000433#01,177920,-623.88,96.52,-5089.11,-642.91,-618.75,-597.81,1122.87
Fz,M15_0000433#01,177920,21.29,1480.14,-5864.0,-111.94,-7.43,106.57,5864.0
C3,M15_0000433#01,177920,58.53,43.81,-5088.93,44.11,59.15,74.71,1542.17
C4,M15_0000433#01,177920,-817.49,150.82,-5089.47,-816.32,-804.33,-794.13,739.19
Cz,M15_0000433#01,177920,32.34,53.29,-703.93,14.94,34.81,54.49,1451.44
T3,M15_0000433#01,177920,45.02,45.06,-5328.38,25.68,46.26,66.3,1547.0
T4,M15_0000433#01,177920,66.3,516.31,-5864.0,38.21,69.35,100.66,5056.54
T5,M15_0000433#01,177920,39.12,44.9,-275.33,15.3,39.82,63.62,1504.95
T6,M15_0000433#01,177920,-616.49,104.16,-2385.78,-642.91,-613.38,-586.18,1052.72
P3,M15_0000433#01,177920,47.0,1503.56,-5864.0,-97.44,0.45,84.74,5790.27
P4,M15_0000433#01,177920,59.23,788.56,-5864.0,-26.75,4.38,32.66,5620.26
Pz,M15_0000433#01,177920,-106.8,2641.01,-5864.0,-582.42,-50.91,440.68,5864.0
O1,M15_0000433#01,177920,59.31,53.83,-5089.83,35.7,60.22,84.2,1531.97
O2,M15_0000433#01,177920,-1067.15,604.06,-5864.0,-1015.5,-984.0,-957.69,5090.9
Fp1,M15_0000434#01,20542976,-439.51,199.52,-5520.4,-492.58,-391.83,-330.09,5528.81
Fp2,M15_0000434#01,20542976,-42.19,128.43,-5085.71,-84.74,-39.1,-3.67,5086.07
F3,M15_0000434#01,20542976,19.57,241.39,-5864.0,-4.38,19.6,40.35,5864.0
F4,M15_0000434#01,20542976,-11.29,906.79,-5864.0,-111.22,-0.45,104.42,5864.0
F7,M15_0000434#01,20542976,153.76,90.83,-5084.28,117.13,162.76,201.77,4441.29
F8,M15_0000434#01,20542976,-494.44,165.67,-5507.52,-619.1,-454.46,-373.75,5011.09
Fz,M15_0000434#01,20542976,-4.44,364.09,-5864.0,-46.62,-4.56,35.7,5864.0
C3,M15_0000434#01,20542976,105.35,92.92,-5085.0,76.68,103.17,138.42,1882.19
C4,M15_0000434#01,20542976,-505.72,280.08,-5493.38,-743.3,-556.65,-219.67,702.86
Cz,M15_0000434#01,20542976,80.44,134.54,-5086.79,46.8,78.65,110.51,5617.22
T3,M15_0000434#01,20542976,113.0,96.13,-5085.0,83.3,118.92,150.06,2806.51
T4,M15_0000434#01,20542976,253.26,602.05,-5864.0,118.02,265.84,385.39,5864.0
T5,M15_0000434#01,20542976,127.04,100.48,-5086.25,86.88,128.4,174.57,2399.56
T6,M15_0000434#01,20542976,-340.39,989.22,-5864.0,-625.01,-357.47,-1.7,5864.0
P3,M15_0000434#01,20542976,0.45,356.68,-5864.0,-27.11,0.09,24.96,5864.0
P4,M15_0000434#01,20542976,0.72,113.71,-5864.0,-8.86,-0.27,8.32,5864.0
Pz,M15_0000434#01,20542976,-21.07,1119.18,-5864.0,-184.42,-0.81,172.96,5864.0
O1,M15_0000434#01,20542976,140.37,91.11,-5084.28,104.78,144.69,187.64,2448.77
O2,M15_0000434#01,20542976,-357.48,1177.79,-5864.0,-808.98,-469.85,174.75,5864.0
Fp1,M15_0000468#01,1154816,-50.84,12.48,-124.11,-59.86,-50.91,-42.14,34.45
Fp2,M15_0000468#01,1154816,-76.61,12.76,-154.71,-85.27,-76.15,-67.74,32.66
F3,M15_0000468#01,1154816,5.69,202.84,-5502.86,-101.56,0.45,102.63,5521.12
F4,M15_0000468#01,1154816,4.78,689.35,-5864.0,-598.35,1.7,602.28,5810.13
F7,M15_0000468#01,1154816,5.28,990.07,-5864.0,-878.41,0.98,881.99,5747.68
F8,M15_0000468#01,1154816,3.43,260.34,-5512.17,-208.75,0.63,210.19,5538.3
Fz,M15_0000468#01,1154816,3.93,300.7,-5538.48,-234.88,-0.27,234.52,5556.19
C3,M15_0000468#01,1154816,-201.84,10.84,-284.45,-208.04,-200.88,-194.62,-139.86
C4,M15_0000468#01,1154816,438.54,11.41,331.7,432.99,438.72,444.8,531.06
Cz,M15_0000468#01,1154816,-173.35,7.71,-221.46,-178.15,-173.5,-168.31,-110.33
T3,M15_0000468#01,1154816,-70.3,23.77,-186.74,-87.96,-72.39,-51.27,21.21
T4,M15_0000468#01,1154816,-48.24,13.5,-168.85,-55.03,-47.16,-40.53,28.01
T5,M15_0000468#01,1154816,5.71,963.48,-5864.0,-848.35,1.16,851.93,5658.74
T6,M15_0000468#01,1154816,3.99,268.82,-5530.6,-209.65,0.45,210.9,5556.91
P3,M15_0000468#01,1154816,5.74,241.51,-4950.06,-153.1,0.63,154.53,5544.74
P4,M15_0000468#01,1154816,3.73,128.83,-4802.42,-16.55,0.27,17.45,5524.52
Pz,M15_0000468#01,1154816,5.61,1227.54,-5864.0,-1109.27,0.98,1113.21,5864.0
O1,M15_0000468#01,1154816,-126.57,13.39,-236.67,-133.77,-126.43,-118.92,-26.93
O2,M15_0000468#01,1154816,-113.87,12.22,-221.82,-120.35,-113.19,-106.75,-17.45
Fp1,M15_0000469#01,49403136,26.59,487.61,-5864.0,-7.43,45.19,89.75,5864.0
Fp2,M15_0000469#01,49403136,-147.01,490.9,-5864.0,-201.06,-127.51,-67.91,5864.0
F3,M15_0000469#01,49403136,-122.78,488.4,-5864.0,-163.12,-110.51,-60.4,5864.0
F4,M15_0000469#01,49403136,-27.79,488.78,-5864.0,-78.83,-1.52,45.19,5864.0
F7,M15_0000469#01,49403136,-126.67,493.29,-5864.0,-212.69,-118.74,-15.84,5864.0
F8,M15_0000469#01,49403136,-115.76,506.24,-5864.0,-239.54,-99.59,17.09,5864.0
Fz,M15_0000469#01,49403136,-136.94,484.08,-5864.0,-159.36,-127.33,-94.76,5864.0
C3,M15_0000469#01,49403136,-215.65,483.67,-5864.0,-236.85,-205.18,-171.89,5864.0
C4,M15_0000469#01,49403136,294.22,475.03,-5864.0,247.59,292.69,344.05,5864.0
Cz,M15_0000469#01,49403136,-315.95,486.09,-5864.0,-338.68,-310.76,-283.74,5864.0
T3,M15_0000469#01,49403136,-165.36,489.17,-5864.0,-215.91,-150.59,-94.58,5864.0
T4,M15_0000469#01,49403136,43.51,488.43,-5864.0,-6.17,58.07,114.98,5864.0
T5,M15_0000469#01,49403136,-208.09,489.28,-5864.0,-250.45,-203.56,-148.8,5864.0
T6,M15_0000469#01,49403136,-298.73,488.24,-5864.0,-352.99,-295.37,-240.25,5864.0
P3,M15_0000469#01,49403136,-157.83,483.9,-5864.0,-186.74,-153.46,-124.11,5864.0
P4,M15_0000469#01,49403136,-256.04,484.18,-5864.0,-302.89,-258.86,-208.22,5864.0
Pz,M15_0000469#01,49403136,-127.35,488.14,-5864.0,-167.77,-116.05,-62.55,5864.0
O1,M15_0000469#01,49403136,-286.35,471.36,-5864.0,-301.28,-256.71,-214.3,5864.0
O2,M15_0000469#01,49403136,-209.99,487.76,-5864.0,-264.23,-204.64,-146.66,5864.0
Fp1,M15_0000473,601600,-33.58,84.01,-641.83,-79.55,-36.42,8.5,702.68
Fp2,M15_0000473,601600,-11.47,105.2,-733.64,-64.51,-13.87,38.21,948.74
F3,M15_0000473,601600,-47.22,75.22,-752.25,-86.53,-49.3,-10.83,596.2
F4,M15_0000473,601600,-5.05,96.33,-847.28,-50.38,-6.17,38.92,914.03
F7,M15_0000473,601600,12.31,80.51,-618.03,-27.83,10.65,50.2,633.6
F8,M15_0000473,601600,26.61,82.06,-788.94,-12.26,26.22,65.23,855.15
Fz,M15_0000473,601600,-40.02,87.36,-844.23,-81.87,-41.43,-0.81,737.57
C3,M15_0000473,601600,10.88,29.45,-257.61,-5.46,10.83,27.29,212.33
C4,M15_0000473,601600,9.82,121.4,-946.06,-39.64,7.61,55.92,967.36
Cz,M15_0000473,601600,14.39,73.78,-734.35,-19.77,13.87,48.05,611.05
T3,M15_0000473,601600,-21.25,59.13,-488.47,-53.24,-23.0,6.89,722.54
T4,M15_0000473,601600,8.35,114.67,-1009.95,-45.9,5.82,59.32,945.88
T5,M15_0000473,601600,-25.58,85.75,-707.69,-67.2,-29.8,8.86,885.21
T6,M15_0000473,601600,-24.13,95.47,-945.7,-73.1,-26.22,21.92,697.85
P3,M15_0000473,601600,-13.66,67.44,-620.54,-43.58,-14.41,15.12,509.58
P4,M15_0000473,601600,-46.83,99.62,-940.87,-90.11,-48.94,-6.53,674.04
Pz,M15_0000473,601600,-13.44,63.47,-505.11,-47.87,-13.51,20.49,440.15
O1,M15_0000473,601600,-45.12,219.78,-1711.64,-127.33,-56.64,13.51,2087.45
O2,M15_0000473,601600,-10.33,78.69,-704.11,-53.06,-13.69,27.11,844.59
Fp1,M15_0000474#01,21234688,-51.52,79.55,-1146.67,-92.61,-53.96,-13.87,1975.25
Fp2,M15_0000474#01,21234688,-32.15,93.03,-1082.96,-74.71,-34.81,7.07,1792.89
F3,M15_0000474#01,21234688,-71.41,70.38,-981.32,-104.06,-72.57,-40.18,5601.11
F4,M15_0000474#01,21234688,23.71,76.4,-1017.64,-10.65,24.43,59.86,1052.0
F7,M15_0000474#01,21234688,18.01,79.08,-3703.08,-12.08,18.34,48.59,2969.54
F8,M15_0000474#01,21234688,4.8,75.13,-1136.11,-32.66,3.13,40.0,1182.64
Fz,M15_0000474#01,21234688,-77.15,80.69,-1094.24,-117.31,-79.01,-38.57,1813.65
C3,M15_0000474#01,21234688,-7.27,33.77,-747.06,-27.47,-8.68,12.08,725.05
C4,M15_0000474#01,21234688,27.2,96.45,-1188.01,-5.1,27.29,60.4,1286.08
Cz,M15_0000474#01,21234688,-11.84,67.36,-1061.13,-45.9,-12.44,22.28,857.3
T3,M15_0000474#01,21234688,-61.58,74.57,-1418.69,-99.95,-63.26,-26.93,5279.52
T4,M15_0000474#01,21234688,20.37,102.71,-1278.39,-19.42,20.13,60.94,1464.86
T5,M15_0000474#01,21234688,-46.56,60.32,-769.43,-73.1,-47.69,-22.1,1307.02
T6,M15_0000474#01,21234688,-17.98,82.22,-1083.32,-54.31,-19.95,14.41,2475.79
P3,M15_0000474#01,21234688,12.42,50.19,-786.79,-9.04,12.08,34.99,689.43
P4,M15_0000474#01,21234688,-43.07,90.08,-1125.02,-77.58,-44.83,-9.93,1788.24
Pz,M15_0000474#01,21234688,-43.64,57.59,-1045.92,-77.04,-45.54,-11.72,989.73
O1,M15_0000474#01,21234688,-34.39,181.02,-1617.51,-85.81,-42.68,-1.16,4629.73
O2,M15_0000474#01,21234688,7.36,77.65,-1048.96,-29.26,4.74,38.92,2540.57
Fp1,M15_0000479#01,37171712,302.18,121.5,-5864.0,278.55,316.67,347.09,5864.0
Fp2,M15_0000479#01,37171712,143.77,97.78,-5864.0,125.36,153.81,171.35,5864.0
F3,M15_0000479#01,37171712,0.13,155.53,-5864.0,-21.21,-1.16,21.03,5705.62
F4,M15_0000479#01,37171712,-5.64,714.54,-5864.0,-149.34,-5.64,148.09,5864.0
F7,M15_0000479#01,37171712,119.23,94.69,-5864.0,99.95,124.11,144.87,5864.0
F8,M15_0000479#01,37171712,190.09,92.51,-5864.0,152.2,201.42,237.39,5864.0
Fz,M15_0000479#01,37171712,-25.25,249.26,-5864.0,-79.19,-29.08,31.41,5864.0
C3,M15_0000479#01,37171712,61.23,96.36,-5864.0,41.43,65.41,85.27,5864.0
C4,M15_0000479#01,37171712,14.44,87.41,-5864.0,-1.7,16.02,32.48,5864.0
Cz,M15_0000479#01,37171712,60.4,86.39,-5864.0,39.1,63.08,84.56,5864.0
T3,M15_0000479#01,37171712,-19.44,107.92,-5864.0,-64.69,-29.62,21.03,5864.0
T4,M15_0000479#01,37171712,-17.75,70.73,-5864.0,-44.83,-19.77,7.43,5864.0
T5,M15_0000479#01,37171712,34.47,104.33,-5864.0,-7.25,26.4,76.5,5864.0
T6,M15_0000479#01,37171712,-22.16,72.34,-5864.0,-48.23,-22.46,1.88,5864.0
P3,M15_0000479#01,37171712,-1.5,272.43,-5864.0,-35.17,-3.13,32.12,5864.0
P4,M15_0000479#01,37171712,-3.25,110.95,-5864.0,-10.11,-3.67,3.31,5864.0
Pz,M15_0000479#01,37171712,-11.5,924.45,-5864.0,-256.18,-10.47,253.31,5864.0
O1,M15_0000479#01,37171712,29.32,101.15,-5864.0,-4.74,27.83,63.44,5864.0
O2,M15_0000479#01,37171712,-68.67,111.48,-5864.0,-108.72,-79.9,-40.53,5864.0
Fp1,M15_0000483,143104,-34.05,1434.53,-5851.47,-2.06,24.25,46.26,5851.47
Fp2,M15_0000483,143104,-486.57,1429.86,-5851.47,-491.51,-441.58,-386.1,5851.47
F3,M15_0000483,143104,-5.06,864.23,-5851.47,-188.0,-4.56,177.08,5851.47
F4,M15_0000483,143104,-200.8,3046.41,-5851.47,-2008.18,-167.42,1558.68,5851.47
F7,M15_0000483,143104,-17.18,1430.05,-5851.47,-9.04,38.21,77.4,5851.47
F8,M15_0000483,143104,-367.22,1419.76,-5851.47,-347.27,-317.02,-286.42,5851.47
Fz,M15_0000483,143104,-513.23,1430.58,-5851.47,-495.62,-465.74,-436.93,5851.47
C3,M15_0000483,143104,-68.43,1426.97,-5851.47,-30.51,-11.18,4.92,5851.47
C4,M15_0000483,143104,-76.64,1422.31,-5851.47,-72.75,-21.21,28.01,5851.47
Cz,M15_0000483,143104,-241.54,1417.1,-5851.47,-221.28,-190.14,-158.83,5851.47
T3,M15_0000483,143104,-298.26,1422.98,-5851.47,-305.57,-252.06,-192.65,5851.47
T4,M15_0000483,143104,-70.04,1431.0,-5851.47,-44.47,-14.23,14.94,5851.47
T5,M15_0000483,143104,-57.73,1442.3,-5851.47,-54.9,-4.92,41.97,5851.47
T6,M15_0000483,143104,-485.72,1432.36,-5851.47,-474.15,-433.88,-396.48,5851.47
P3,M15_0000483,143104,-34.4,1554.77,-5851.47,-412.05,-21.92,350.67,5851.47
P4,M15_0000483,143104,-6.85,687.71,-5851.47,-135.2,-2.77,130.01,5851.47
Pz,M15_0000483,143104,-218.39,3500.72,-5851.47,-2957.01,-323.47,2353.38,5851.47
O1,M15_0000483,143104,-755.26,1286.65,-5851.47,-490.08,-441.22,-402.21,5851.47
O2,M15_0000483,143104,-49.82,1443.48,-5851.47,-28.01,6.89,36.6,5851.47
Fp1,M15_0000484#01,3560448,30.12,24.06,-273.54,20.67,30.33,39.28,735.96
Fp2,M15_0000484#01,3560448,-485.23,106.12,-5864.0,-496.34,-482.02,-468.6,439.25
F3,M15_0000484#01,3560448,-0.5,285.21,-5527.2,-49.66,-0.81,50.91,5540.8
F4,M15_0000484#01,3560448,-52.08,1414.63,-5864.0,-478.62,-26.75,437.1,5864.0
F7,M15_0000484#01,3560448,35.33,35.03,-656.15,22.1,34.63,48.41,582.24
F8,M15_0000484#01,3560448,-364.81,41.42,-5461.17,-378.05,-366.24,-352.1,403.64
Fz,M15_0000484#01,3560448,-509.68,104.92,-5864.0,-522.83,-509.94,-494.73,436.75
C3,M15_0000484#01,3560448,-16.64,21.89,-513.88,-28.9,-17.09,-5.64,249.74
C4,M15_0000484#01,3560448,-17.02,45.74,-662.77,-32.66,-17.81,-1.88,543.58
Cz,M15_0000484#01,3560448,-327.1,44.22,-768.36,-354.07,-337.96,-307.0,448.38
T3,M15_0000484#01,3560448,-364.23,49.29,-1087.62,-395.94,-376.26,-339.75,536.43
T4,M15_0000484#01,3560448,-4.34,27.05,-378.41,-19.24,-4.56,10.65,720.04
T5,M15_0000484#01,3560448,-207.39,108.4,-871.97,-290.72,-244.72,-134.84,814.35
T6,M15_0000484#01,3560448,-467.38,102.97,-5864.0,-492.22,-465.92,-437.46,1602.3
P3,M15_0000484#01,3560448,-2.81,542.79,-5864.0,-72.75,-0.98,73.64,5611.85
P4,M15_0000484#01,3560448,-0.11,194.41,-5517.54,-127.87,-1.88,127.69,5551.9
Pz,M15_0000484#01,3560448,-44.53,1769.1,-5864.0,-804.5,-18.16,783.21,5864.0
O1,M15_0000484#01,3560448,-515.49,128.71,-5864.0,-547.88,-523.36,-480.05,5864.0
O2,M15_0000484#01,3560448,5.85,29.87,-574.19,-9.04,5.64,20.49,808.26
Fp1,M15_0000501#01,391424,745.8,1119.64,-5811.39,812.56,830.81,846.92,5758.95
Fp2,M15_0000501#01,391424,746.37,1111.43,-5804.23,811.48,829.2,845.84,5762.35
F3,M15_0000501#01,391424,10.89,269.95,-5635.47,-24.79,9.04,41.61,5864.0
F4,M15_0000501#01,391424,-2.08,893.22,-5864.0,-327.4,-15.12,290.72,5864.0
F7,M15_0000501#01,391424,762.12,1132.56,-5864.0,821.51,847.63,872.87,5864.0
F8,M15_0000501#01,391424,733.24,1094.24,-5779.17,790.37,814.71,838.86,5864.0
Fz,M15_0000501#01,391424,88.77,674.64,-5864.0,-8.32,96.37,201.24,5696.5
C3,M15_0000501#01,391424,597.28,996.39,-5864.0,638.43,661.16,684.78,5864.0
C4,M15_0000501#01,391424,722.91,1106.43,-5864.0,768.89,803.25,836.72,5864.0
Cz,M15_0000501#01,391424,755.37,1132.81,-5840.56,807.55,839.94,873.22,5756.63
T3,M15_0000501#01,391424,744.23,1117.1,-5687.73,795.74,827.41,857.83,5741.23
T4,M15_0000501#01,391424,705.2,1047.31,-5864.0,743.84,778.73,811.48,5864.0
T5,M15_0000501#01,391424,753.71,1137.23,-5864.0,797.88,838.86,878.06,5776.31
T6,M15_0000501#01,391424,440.35,877.7,-5864.0,438.36,488.82,539.29,5864.0
P3,M15_0000501#01,391424,4.83,424.88,-5727.46,-56.28,1.16,59.15,5832.15
P4,M15_0000501#01,391424,2.18,438.53,-5864.0,-24.43,3.13,30.87,5864.0
Pz,M15_0000501#01,391424,-8.82,1267.15,-5864.0,-578.17,-19.77,521.21,5864.0
O1,M15_0000501#01,391424,578.41,1194.1,-5864.0,771.22,811.48,850.85,5864.0
O2,M15_0000501#01,391424,727.7,1107.97,-5828.75,760.12,809.16,857.66,5864.0
Fp1,M15_0000502#01,2799104,829.96,27.9,650.96,813.81,829.92,846.38,2139.17
Fp2,M15_0000502#01,2799104,825.07,27.09,636.28,809.34,824.73,840.83,2134.52
F3,M15_0000502#01,2799104,3.44,43.41,-2064.01,-15.12,2.42,19.42,1681.93
F4,M15_0000502#01,2799104,-0.19,366.21,-5864.0,-165.45,-14.59,122.14,5772.02
F7,M15_0000502#01,2799104,852.21,40.81,621.07,827.41,852.29,876.98,2112.15
F8,M15_0000502#01,2799104,815.03,38.71,602.82,791.08,815.06,838.51,2030.37
Fz,M15_0000502#01,2799104,40.05,111.7,-5319.79,-13.33,29.62,85.45,4022.35
C3,M15_0000502#01,2799104,648.87,33.93,386.28,627.87,648.27,669.03,1567.76
C4,M15_0000502#01,2799104,793.44,49.74,534.46,763.7,793.23,823.12,1949.83
Cz,M15_0000502#01,2799104,817.05,45.35,554.32,789.47,816.67,843.88,2122.89
T3,M15_0000502#01,2799104,825.92,48.42,468.06,796.27,825.8,855.15,2037.17
T4,M15_0000502#01,2799104,755.12,47.06,462.7,726.12,755.29,783.57,1909.93
T5,M15_0000502#01,2799104,825.63,54.07,435.31,791.62,825.62,860.34,2112.51
T6,M15_0000502#01,2799104,342.43,60.29,9.93,304.32,341.72,379.84,1075.27
P3,M15_0000502#01,2799104,1.18,85.8,-3770.19,-34.81,-2.42,27.65,2945.56
P4,M15_0000502#01,2799104,0.11,25.09,-850.68,-7.96,-0.45,7.07,1782.69
Pz,M15_0000502#01,2799104,-0.42,572.67,-5864.0,-275.51,-21.74,216.45,5864.0
O1,M15_0000502#01,2799104,796.68,54.55,536.43,762.09,796.45,830.63,2039.85
O2,M15_0000502#01,2799104,803.34,66.19,468.6,760.66,803.61,846.02,2074.75
Fp1,M15_0000508#01,36155904,-69.99,1956.5,-5864.0,-403.1,-362.3,-274.61,5864.0
Fp2,M15_0000508#01,36155904,520.89,1816.08,-5864.0,308.61,398.27,423.86,5864.0
F3,M15_0000508#01,36155904,-210.43,402.84,-5864.0,-446.59,-126.79,-62.01,5864.0
F4,M15_0000508#01,36155904,158.47,1967.9,-5864.0,-2.95,8.5,65.05,5864.0
F7,M15_0000508#01,36155904,528.49,1901.72,-5864.0,395.05,439.97,477.73,5864.0
F8,M15_0000508#01,36155904,492.59,1998.22,-5863.46,330.62,483.45,538.75,5863.46
Fz,M15_0000508#01,36155904,253.11,1958.78,-5864.0,0.27,68.99,268.88,5864.0
C3,M15_0000508#01,36155904,-377.5,305.55,-5863.11,-400.78,-347.98,-343.51,5863.11
C4,M15_0000508#01,36155904,239.41,1790.43,-5863.11,-107.29,-79.19,-55.75,5863.11
Cz,M15_0000508#01,36155904,18.27,271.28,-5864.0,-24.96,-4.74,14.94,5864.0
T3,M15_0000508#01,36155904,465.81,2033.23,-5864.0,363.55,458.76,474.69,5864.0
T4,M15_0000508#01,36155904,-284.7,348.4,-5864.0,-434.42,-253.14,-113.01,5864.0
T5,M15_0000508#01,36155904,383.81,1952.81,-5864.0,279.62,318.28,334.74,5864.0
T6,M15_0000508#01,36155904,-823.03,356.24,-5864.0,-880.56,-851.75,-825.08,5864.0
P3,M15_0000508#01,36155904,276.07,295.58,-5864.0,279.98,309.15,315.23,5864.0
P4,M15_0000508#01,36155904,-94.61,276.88,-5863.11,-103.53,-73.1,-65.23,5863.11
Pz,M15_0000508#01,36155904,308.6,288.2,-5864.0,290.36,360.15,366.24,5864.0
O1,M15_0000508#01,36155904,-240.8,312.17,-5864.0,-327.22,-198.91,-118.38,5864.0
O2,M15_0000508#01,36155904,191.38,287.88,-5864.0,162.05,207.86,248.13,5864.0
Fp1,M15_0000516#01,20673536,227.73,58.34,-5088.4,175.65,217.88,274.83,1988.49
Fp2,M15_0000516#01,20673536,238.87,50.38,-5091.26,193.72,228.26,285.17,1824.74
F3,M15_0000516#01,20673536,143.23,82.55,-5090.72,60.22,142.0,224.86,1714.51
F4,M15_0000516#01,20673536,24.05,27.38,-5089.83,2.77,27.11,44.29,1544.14
F7,M15_0000516#01,20673536,-26.1,28.19,-5089.83,-40.53,-31.77,-20.85,1492.96
F8,M15_0000516#01,20673536,108.1,22.79,-5089.47,97.44,105.32,114.44,2262.65
Fz,M15_0000516#01,20673536,-3.47,31.25,-5090.01,-23.71,-9.22,8.5,1687.3
C3,M15_0000516#01,20673536,54.59,20.85,-5313.35,40.35,54.49,65.23,1535.73
C4,M15_0000516#01,20673536,77.14,15.63,-5090.01,72.21,75.97,79.9,1461.64
Cz,M15_0000516#01,20673536,71.4,44.3,-5090.37,38.03,62.9,89.03,2856.08
T3,M15_0000516#01,20673536,82.66,30.77,-5090.72,57.71,79.37,102.99,1548.79
T4,M15_0000516#01,20673536,74.56,33.97,-5089.65,49.48,55.75,111.94,1516.58
T5,M15_0000516#01,20673536,501.94,25.77,-5090.19,496.88,501.17,507.97,2291.29
T6,M15_0000516#01,20673536,188.49,37.21,-5089.83,184.95,201.6,211.44,1604.09
P3,M15_0000516#01,20673536,-50.47,61.35,-5088.93,-86.17,-70.6,-25.5,5623.12
P4,M15_0000516#01,20673536,64.56,25.96,-5088.75,59.68,66.12,70.42,5607.91
Pz,M15_0000516#01,20673536,30.23,44.05,-5090.19,-6.71,41.61,65.95,4655.14
O1,M15_0000516#01,20673536,179.31,21.3,-5088.93,174.75,179.23,183.88,2466.66
O2,M15_0000516#01,20673536,168.48,29.17,-5090.72,156.14,160.97,167.59,2172.46
Fp1,M15_0000547#01,22991360,127.96,142.35,-5864.0,97.44,142.18,176.01,5864.0
Fp2,M15_0000547#01,22991360,85.94,140.82,-5864.0,45.01,99.77,133.23,5864.0
F3,M15_0000547#01,22991360,-29.21,101.4,-5863.82,-52.7,-25.5,-1.52,5863.82
F4,M15_0000547#01,22991360,-40.17,99.92,-5864.0,-73.46,-40.71,-5.82,5864.0
F7,M15_0000547#01,22991360,339.99,188.05,-5864.0,309.15,360.15,413.48,5864.0
F8,M15_0000547#01,22991360,13.6,139.57,-5863.28,-12.8,13.15,46.08,5863.28
Fz,M15_0000547#01,22991360,-62.94,122.6,-5864.0,-101.02,-56.64,-24.07,5864.0
C3,M15_0000547#01,22991360,10.63,74.5,-5864.0,-2.59,12.26,26.4,5864.0
C4,M15_0000547#01,22991360,-37.91,90.75,-5864.0,-63.62,-38.74,-11.9,5864.0
Cz,M15_0000547#01,22991360,-40.98,84.81,-5804.59,-71.14,-27.29,-2.59,5864.0
T3,M15_0000547#01,22991360,83.02,119.78,-5864.0,54.49,90.28,118.38,5864.0
T4,M15_0000547#01,22991360,-58.12,108.47,-5864.0,-95.83,-58.79,-18.7,5864.0
T5,M15_0000547#01,22991360,48.35,118.51,-5864.0,17.45,50.38,79.55,5864.0
T6,M15_0000547#01,22991360,-20.3,122.76,-5864.0,-52.17,-17.99,9.4,5864.0
P3,M15_0000547#01,22991360,-41.41,141.27,-5864.0,-74.89,-43.22,-10.47,5864.0
P4,M15_0000547#01,22991360,-119.57,153.05,-5863.46,-174.39,-126.97,-74.18,5863.46
Pz,M15_0000547#01,22991360,49.18,115.09,-5864.0,11.9,51.63,83.66,5864.0
O1,M15_0000547#01,22991360,21.73,116.61,-5864.0,-5.64,31.05,65.77,5864.0
O2,M15_0000547#01,22991360,80.54,136.02,-5864.0,17.81,89.93,138.42,5864.0
Fp1,M15_0000555#01,922112,67.31,355.62,-5864.0,53.78,72.39,90.64,5864.0
Fp2,M15_0000555#01,922112,99.81,309.86,-5864.0,79.37,103.35,129.12,5864.0
F3,M15_0000555#01,922112,156.32,362.25,-5864.0,143.61,161.87,179.76,5864.0
F4,M15_0000555#01,922112,157.25,311.51,-5864.0,137.71,161.69,186.21,5864.0
F7,M15_0000555#01,922112,202.4,387.8,-5864.0,189.43,208.4,227.37,5864.0
F8,M15_0000555#01,922112,91.16,305.56,-5864.0,69.53,95.83,121.6,5864.0
Fz,M15_0000555#01,922112,-24.95,1356.65,-5864.0,-0.63,24.25,52.52,5864.0
C3,M15_0000555#01,922112,130.34,360.01,-5864.0,124.11,135.38,146.83,5864.0
C4,M15_0000555#01,922112,231.59,324.07,-5864.0,154.53,193.36,318.46,5864.0
Cz,M15_0000555#01,922112,67.15,304.57,-5864.0,53.96,70.6,87.78,5864.0
T3,M15_0000555#01,922112,154.88,396.99,-5864.0,139.86,161.87,184.42,5864.0
T4,M15_0000555#01,922112,161.59,309.04,-5864.0,144.87,166.34,187.28,5864.0
T5,M15_0000555#01,922112,148.24,412.07,-5864.0,132.34,154.89,178.51,5864.0
T6,M15_0000555#01,922112,664.5,316.95,-5864.0,644.16,669.39,694.98,5864.0
P3,M15_0000555#01,922112,136.15,359.17,-5864.0,129.83,141.47,153.1,5864.0
P4,M15_0000555#01,922112,152.81,305.33,-5864.0,137.35,157.04,177.08,5864.0
Pz,M15_0000555#01,922112,13.39,307.6,-5864.0,2.77,16.55,31.05,5864.0
O1,M15_0000555#01,922112,262.09,450.29,-5864.0,271.57,293.22,314.16,5864.0
O2,M15_0000555#01,922112,290.66,329.57,-5864.0,269.78,293.4,317.2,5864.0
Fp1,M15_0000556#01,61331456,-3.5,142.57,-5864.0,-53.42,-11.72,45.9,5864.0
Fp2,M15_0000556#01,61331456,-24.92,133.61,-5864.0,-71.49,-38.03,12.62,5864.0
F3,M15_0000556#01,61331456,120.95,147.5,-5864.0,100.13,118.2,139.68,5864.0
F4,M15_0000556#01,61331456,206.31,110.58,-5864.0,183.52,210.01,232.2,5864.0
F7,M15_0000556#01,61331456,119.65,132.6,-5864.0,82.77,110.51,150.41,5864.0
F8,M15_0000556#01,61331456,-30.85,139.97,-5864.0,-94.76,-43.93,31.59,5864.0
Fz,M15_0000556#01,61331456,-96.38,153.18,-5864.0,-135.74,-76.15,-32.84,5864.0
C3,M15_0000556#01,61331456,-7.36,117.83,-5864.0,-54.85,-20.85,36.06,5864.0
C4,M15_0000556#01,61331456,199.29,106.64,-5864.0,181.73,200.52,218.6,5864.0
Cz,M15_0000556#01,61331456,-25.87,122.99,-5864.0,-76.86,-36.78,22.46,5864.0
T3,M15_0000556#01,61331456,153.35,137.62,-5864.0,109.25,147.01,194.26,5864.0
T4,M15_0000556#01,61331456,43.47,140.83,-5864.0,-21.56,30.87,101.2,5864.0
T5,M15_0000556#01,61331456,51.97,130.18,-5864.0,18.16,44.47,79.73,5864.0
T6,M15_0000556#01,61331456,385.75,154.15,-5864.0,304.68,357.47,439.25,5864.0
P3,M15_0000556#01,61331456,38.21,121.95,-5864.0,-7.43,22.28,69.35,5864.0
P4,M15_0000556#01,61331456,122.29,111.11,-5864.0,88.14,121.24,153.99,5864.0
Pz,M15_0000556#01,61331456,-56.18,110.98,-5864.0,-108.0,-74.0,-12.62,5864.0
O1,M15_0000556#01,61331456,213.69,108.16,-5864.0,187.46,207.32,238.46,5864.0
O2,M15_0000556#01,61331456,234.0,117.78,-5864.0,195.69,235.42,271.75,5864.0
Fp1,M15_0000568#01,88644608,51.23,45.67,-5864.0,29.08,51.45,72.21,5567.11
Fp2,M15_0000568#01,88644608,10.65,39.82,-5864.0,-11.18,7.07,31.05,5790.81
F3,M15_0000568#01,88644608,0.06,81.36,-5858.63,-9.75,-0.63,8.5,5864.0
F4,M15_0000568#01,88644608,0.08,70.62,-5864.0,-10.29,-0.81,9.57,5864.0
F7,M15_0000568#01,88644608,-129.9,105.46,-5705.26,-208.22,-129.3,-47.87,5546.35
F8,M15_0000568#01,88644608,17.6,205.74,-5864.0,-59.86,32.48,98.87,5864.0
Fz,M15_0000568#01,88644608,0.2,90.25,-5864.0,-12.08,-0.81,11.36,5599.32
C3,M15_0000568#01,88644608,22.2,43.79,-5010.73,-14.05,22.46,56.46,3061.88
C4,M15_0000568#01,88644608,-46.17,92.59,-5663.57,-87.06,-29.08,4.56,5597.89
Cz,M15_0000568#01,88644608,-14.42,50.92,-5010.73,-53.6,-12.44,22.82,5121.68
T3,M15_0000568#01,88644608,13.24,65.93,-5864.0,-37.67,12.44,62.37,5540.62
T4,M15_0000568#01,88644608,20.88,103.43,-5864.0,-63.08,38.92,95.83,5864.0
T5,M15_0000568#01,88644608,-61.52,70.15,-5864.0,-101.02,-61.65,-21.56,5521.12
T6,M15_0000568#01,88644608,-90.81,90.35,-5864.0,-146.12,-96.37,-36.42,5783.83
P3,M15_0000568#01,88644608,-0.05,147.99,-5864.0,-18.88,-1.16,17.27,5864.0
P4,M15_0000568#01,88644608,0.03,108.64,-5864.0,-23.0,-2.06,22.1,5864.0
Pz,M15_0000568#01,88644608,0.14,84.17,-5864.0,-18.34,-1.34,17.09,5565.14
O1,M15_0000568#01,88644608,-104.15,93.14,-5864.0,-147.37,-108.18,-64.16,5864.0
O2,M15_0000568#01,88644608,-98.04,105.14,-5010.73,-141.82,-106.39,-60.22,5520.76
Fp1,M15_0000574#01,22905344,62.22,97.22,-5864.0,40.53,61.83,87.42,5864.0
Fp2,M15_0000574#01,22905344,31.17,84.93,-5864.0,17.27,31.41,45.37,5864.0
F3,M15_0000574#01,22905344,0.62,135.38,-5864.0,-4.38,-0.27,3.85,5864.0
F4,M15_0000574#01,22905344,0.52,127.69,-5864.0,-5.46,-0.27,5.1,5864.0
F7,M15_0000574#01,22905344,70.63,97.62,-5864.0,48.59,71.67,95.65,5864.0
F8,M15_0000574#01,22905344,55.02,89.71,-5864.0,38.39,57.18,74.89,5864.0
Fz,M15_0000574#01,22905344,0.56,158.53,-5864.0,-4.92,-0.27,4.74,5864.0
C3,M15_0000574#01,22905344,32.93,93.73,-5864.0,15.84,30.69,52.17,5864.0
C4,M15_0000574#01,22905344,-32.85,101.69,-5864.0,-49.84,-33.02,-16.37,5864.0
Cz,M15_0000574#01,22905344,6.38,95.42,-5864.0,-16.55,3.31,28.54,5864.0
T3,M15_0000574#01,22905344,59.05,97.56,-5864.0,37.13,57.36,81.34,5864.0
T4,M15_0000574#01,22905344,48.69,89.88,-5864.0,26.4,51.27,73.64,5864.0
T5,M15_0000574#01,22905344,103.33,101.23,-5864.0,74.36,106.39,135.02,5864.0
T6,M15_0000574#01,22905344,32.87,96.21,-5864.0,3.13,31.05,62.01,5864.0
P3,M15_0000574#01,22905344,0.31,323.68,-5864.0,-9.93,-0.27,9.22,5864.0
P4,M15_0000574#01,22905344,0.3,188.84,-5864.0,-9.93,-0.27,8.86,5864.0
Pz,M15_0000574#01,22905344,0.6,267.1,-5864.0,-9.04,-0.27,8.5,5864.0
O1,M15_0000574#01,22905344,41.37,97.23,-5864.0,20.85,40.89,62.01,5864.0
O2,M15_0000574#01,22905344,47.22,99.19,-5864.0,25.32,47.69,70.06,5864.0
Fp1,M15_0000600#01,347136,-0.18,20.14,-118.56,-11.18,0.45,11.9,145.76
Fp2,M15_0000600#01,347136,14.86,19.61,-87.24,3.31,15.3,26.75,150.59
F3,M15_0000600#01,347136,6.89,15.68,-90.11,-1.7,7.25,16.02,120.17
F4,M15_0000600#01,347136,19.77,17.17,-65.41,9.4,19.95,30.33,146.48
F7,M15_0000600#01,347136,23.91,30.85,-165.09,4.92,24.61,43.4,202.85
F8,M15_0000600#01,347136,24.58,40.04,-221.28,-0.45,23.89,48.94,293.4
Fz,M15_0000600#01,347136,-4.94,15.34,-83.66,-14.05,-4.56,4.03,219.49
C3,M15_0000600#01,347136,26.86,20.58,-92.61,14.94,26.75,38.57,340.83
C4,M15_0000600#01,347136,26.83,18.07,-85.99,15.84,27.11,38.39,140.75
Cz,M15_0000600#01,347136,-9.19,19.28,-104.24,-18.88,-10.29,-1.34,108.0
T3,M15_0000600#01,347136,18.41,52.61,-301.63,-14.23,18.16,51.27,321.14
T4,M15_0000600#01,347136,1.48,56.31,-306.82,-33.38,0.45,35.34,779.09
T5,M15_0000600#01,347136,18.68,29.17,-172.43,1.16,19.06,36.95,181.91
T6,M15_0000600#01,347136,-0.6,37.49,-192.29,-23.18,-0.98,21.21,791.62
P3,M15_0000600#01,347136,13.21,21.77,-154.71,1.52,14.05,26.22,146.83
P4,M15_0000600#01,347136,0.34,21.2,-172.07,-12.26,0.63,13.51,151.49
Pz,M15_0000600#01,347136,3.07,20.92,-167.77,-7.43,4.21,15.66,129.48
O1,M15_0000600#01,347136,7.57,28.3,-175.47,-9.75,7.43,24.96,232.02
O2,M15_0000600#01,347136,-1.56,29.71,-273.18,-19.42,-1.16,17.09,272.11
Fp1,M15_0000601#01,43308288,71.03,46.19,-5520.58,44.11,73.64,98.7,1399.72
Fp2,M15_0000601#01,43308288,124.82,65.65,-5500.54,79.55,122.32,172.43,1507.99
F3,M15_0000601#01,43308288,43.65,31.02,-5509.13,26.22,43.4,60.58,1349.25
F4,M15_0000601#01,43308288,45.82,30.64,-5532.75,29.8,45.37,61.47,1368.4
F7,M15_0000601#01,43308288,106.46,50.59,-5522.73,76.15,109.25,138.96,1462.71
F8,M15_0000601#01,43308288,58.61,42.52,-5513.78,34.99,59.5,83.3,2912.45
Fz,M15_0000601#01,43308288,28.04,33.04,-5534.0,8.5,28.01,46.08,1401.15
C3,M15_0000601#01,43308288,76.85,38.44,-5520.58,54.31,79.37,99.77,1478.82
C4,M15_0000601#01,43308288,62.19,35.72,-5504.29,43.22,63.8,82.05,1400.26
Cz,M15_0000601#01,43308288,-26.45,25.44,-5532.93,-37.67,-26.75,-15.3,1296.46
T3,M15_0000601#01,43308288,63.14,47.81,-5521.47,36.42,63.98,91.72,2244.76
T4,M15_0000601#01,43308288,58.93,57.75,-5532.75,24.43,59.5,94.58,2565.09
T5,M15_0000601#01,43308288,95.49,42.74,-5504.47,74.36,98.34,120.17,1407.77
T6,M15_0000601#01,43308288,36.66,47.27,-5538.48,10.11,35.34,61.83,2994.41
P3,M15_0000601#01,43308288,17.88,38.86,-5530.42,0.98,16.73,33.2,5034.89
P4,M15_0000601#01,43308288,19.19,30.2,-5524.34,3.13,18.88,34.99,1336.9
Pz,M15_0000601#01,43308288,11.64,32.78,-5511.63,-5.28,10.47,27.65,3680.54
O1,M15_0000601#01,43308288,57.22,48.82,-5528.63,27.29,57.89,87.24,1409.92
O2,M15_0000601#01,43308288,62.54,57.52,-5515.57,27.83,62.72,94.76,2415.3
Fp1,M15_0000603#01,41323264,-54.61,26.49,-1228.63,-72.75,-59.32,-40.71,1466.11
Fp2,M15_0000603#01,41323264,-12.64,19.63,-1187.65,-23.89,-13.87,-2.24,1465.57
F3,M15_0000603#01,41323264,-36.59,13.49,-1230.25,-44.83,-37.13,-31.05,1470.59
F4,M15_0000603#01,41323264,-72.23,28.72,-1437.3,-90.11,-76.15,-58.61,3095.7
F7,M15_0000603#01,41323264,-55.22,21.84,-1212.71,-67.56,-59.32,-47.33,1645.07
F8,M15_0000603#01,41323264,-38.82,25.6,-1248.5,-54.13,-41.07,-25.14,1471.3
Fz,M15_0000603#01,41323264,-62.11,27.18,-1255.66,-80.08,-66.12,-48.23,1459.49
C3,M15_0000603#01,41323264,-80.29,23.59,-1373.41,-99.23,-84.38,-67.2,1409.2
C4,M15_0000603#01,41323264,-60.62,25.9,-1711.11,-78.65,-64.51,-46.98,1425.67
Cz,M15_0000603#01,41323264,-41.17,17.04,-2828.52,-51.09,-42.14,-32.12,1439.45
T3,M15_0000603#01,41323264,-94.76,49.93,-4248.73,-108.54,-97.26,-84.56,5718.87
T4,M15_0000603#01,41323264,-48.51,27.91,-1240.63,-65.77,-52.35,-34.27,2399.38
T5,M15_0000603#01,41323264,-193.58,71.23,-1391.84,-257.25,-197.12,-143.79,3321.73
T6,M15_0000603#01,41323264,-113.78,42.46,-2907.97,-135.2,-119.63,-97.62,5821.59
P3,M15_0000603#01,41323264,-53.43,23.39,-1225.77,-67.91,-56.64,-42.86,2331.91
P4,M15_0000603#01,41323264,-273.96,90.94,-1520.87,-343.33,-307.54,-226.47,2296.83
Pz,M15_0000603#01,41323264,-85.95,36.61,-1281.61,-113.01,-93.86,-65.95,1438.19
O1,M15_0000603#01,41323264,-57.51,37.06,-5864.0,-81.16,-55.92,-34.99,5864.0
O2,M15_0000603#01,41323264,-65.96,58.06,-5629.21,-85.09,-67.38,-49.12,5611.31
Fp1,M15_0000615#01,13714176,91.87,44.29,-345.84,64.69,90.64,116.23,2380.59
Fp2,M15_0000615#01,13714176,61.45,37.49,-370.35,40.0,60.22,80.8,2345.15
F3,M15_0000615#01,13714176,-11.34,29.03,-394.33,-28.36,-13.33,7.78,2319.74
F4,M15_0000615#01,13714176,96.46,36.27,-341.36,72.93,96.19,120.71,2477.4
F7,M15_0000615#01,13714176,35.11,27.43,-418.85,19.42,35.34,50.38,2379.87
F8,M15_0000615#01,13714176,27.77,26.44,-388.43,12.44,27.83,42.86,2371.46
Fz,M15_0000615#01,13714176,1.68,19.91,-408.11,-9.22,2.24,12.97,2363.23
C3,M15_0000615#01,13714176,30.36,17.93,-389.32,19.95,31.41,41.43,2367.34
C4,M15_0000615#01,13714176,-2.02,21.84,-409.72,-13.33,-1.52,9.93,2336.38
Cz,M15_0000615#01,13714176,47.96,27.04,-362.48,30.87,48.05,65.41,2388.82
T3,M15_0000615#01,13714176,27.08,32.41,-442.29,8.32,27.29,46.26,2372.53
T4,M15_0000615#01,13714176,22.64,29.41,-404.53,6.35,23.18,39.46,2387.74
T5,M15_0000615#01,13714176,38.71,34.22,-442.83,18.34,38.74,59.15,2350.16
T6,M15_0000615#01,13714176,38.77,35.92,-405.07,17.99,38.92,59.68,2379.33
P3,M15_0000615#01,13714176,-3.07,27.96,-401.49,-19.24,-2.42,13.87,2357.68
P4,M15_0000615#01,13714176,-10.62,25.62,-427.08,-24.43,-10.29,3.31,2339.6
Pz,M15_0000615#01,13714176,-22.44,27.11,-427.26,-37.13,-22.1,-7.61,2323.32
O1,M15_0000615#01,13714176,-817.2,71.56,-1621.27,-844.77,-821.15,-794.3,3036.11
O2,M15_0000615#01,13714176,29.84,35.38,-409.9,9.4,28.72,48.77,2388.1
Fp1,M16_0000021#01,467968,-12.6,26.84,-180.48,-27.65,-12.8,1.88,272.46
Fp2,M16_0000021#01,467968,-9.09,30.97,-186.92,-26.93,-8.86,7.96,160.26
F3,M16_0000021#01,467968,-8.09,15.72,-173.32,-16.2,-9.22,-0.45,167.24
F4,M16_0000021#01,467968,9.92,30.02,-172.25,-7.25,10.11,27.29,268.35
F7,M16_0000021#01,467968,28.17,24.8,-145.4,13.87,28.01,41.97,190.86
F8,M16_0000021#01,467968,12.92,33.85,-173.86,-6.53,12.44,32.12,197.66
Fz,M16_0000021#01,467968,3.2,21.87,-173.86,-8.5,2.95,15.12,184.59
C3,M16_0000021#01,467968,-19.75,23.69,-199.27,-34.09,-20.31,-6.0,152.74
C4,M16_0000021#01,467968,-47.4,33.06,-354.6,-67.38,-48.77,-28.01,158.83
Cz,M16_0000021#01,467968,39.31,25.28,-183.7,24.43,37.49,53.42,237.03
T3,M16_0000021#01,467968,20.9,28.22,-143.26,4.56,19.6,35.7,271.57
T4,M16_0000021#01,467968,33.84,38.04,-151.31,11.18,32.66,55.92,238.82
T5,M16_0000021#01,467968,48.62,28.11,-112.83,32.12,47.51,63.98,210.54
T6,M16_0000021#01,467968,18.9,39.77,-150.77,-6.17,18.7,43.4,206.43
P3,M16_0000021#01,467968,28.25,24.76,-141.82,13.15,27.11,41.79,197.66
P4,M16_0000021#01,467968,-22.82,34.54,-200.52,-44.29,-23.0,-1.52,155.96
Pz,M16_0000021#01,467968,-22.52,32.52,-194.44,-43.22,-23.53,-2.59,154.53
O1,M16_0000021#01,467968,29.04,39.06,-130.19,3.85,28.9,53.24,205.89
O2,M16_0000021#01,467968,17.45,38.8,-157.75,-7.25,17.27,41.61,182.45
Fp1,M16_0000023#01,43247360,2.75,40.99,-4976.19,-17.09,3.31,22.46,5531.85
Fp2,M16_0000023#01,43247360,-21.61,42.18,-4979.95,-40.18,-21.74,-4.03,5258.59
F3,M16_0000023#01,43247360,-92.93,46.36,-5011.62,-105.67,-94.04,-82.41,5836.98
F4,M16_0000023#01,43247360,-62.19,40.97,-5037.57,-84.02,-65.41,-44.11,5013.95
F7,M16_0000023#01,43247360,21.95,38.82,-5864.0,4.21,23.18,40.0,5864.0
F8,M16_0000023#01,43247360,-17.88,43.41,-5257.87,-40.35,-17.63,4.38,5009.83
Fz,M16_0000023#01,43247360,-11.89,30.31,-4983.53,-23.35,-11.01,-0.27,5020.93
C3,M16_0000023#01,43247360,-85.01,40.9,-5864.0,-104.06,-87.78,-67.74,5864.0
C4,M16_0000023#01,43247360,-81.41,44.75,-5864.0,-102.81,-82.95,-60.94,5864.0
Cz,M16_0000023#01,43247360,-58.46,52.63,-5864.0,-96.01,-57.18,-24.25,5864.0
T3,M16_0000023#01,43247360,-89.87,49.44,-5483.54,-116.77,-95.83,-68.27,5737.12
T4,M16_0000023#01,43247360,-89.28,56.32,-5864.0,-123.21,-91.89,-58.97,5459.56
T5,M16_0000023#01,43247360,-61.53,63.44,-5864.0,-91.18,-65.05,-35.88,5864.0
T6,M16_0000023#01,43247360,-93.79,48.57,-5337.86,-120.17,-96.73,-70.78,5010.55
P3,M16_0000023#01,43247360,-69.16,43.86,-5759.49,-91.89,-72.39,-48.05,5004.64
P4,M16_0000023#01,43247360,-65.31,48.32,-5864.0,-89.21,-67.02,-43.04,5864.0
Pz,M16_0000023#01,43247360,-109.41,47.5,-5864.0,-135.2,-111.94,-85.27,5526.31
O1,M16_0000023#01,43247360,-68.73,63.32,-5864.0,-101.2,-72.21,-38.57,5585.18
O2,M16_0000023#01,43247360,-50.07,57.29,-5551.9,-83.13,-51.99,-18.52,5563.89
Fp1,M16_0000063#01,21792512,230.23,165.25,-5010.73,161.69,233.27,307.72,3620.76
Fp2,M16_0000063#01,21792512,89.65,152.0,-5010.73,37.49,82.77,138.96,3496.75
F3,M16_0000063#01,21792512,10.63,127.2,-5010.73,-7.43,13.15,34.81,3521.08
F4,M16_0000063#01,21792512,12.95,150.98,-5010.73,-21.21,16.37,55.03,3485.83
F7,M16_0000063#01,21792512,16.55,140.82,-5010.73,-20.67,13.51,57.0,3558.84
F8,M16_0000063#01,21792512,-29.9,154.58,-5010.73,-72.75,-20.31,23.35,3420.51
Fz,M16_0000063#01,21792512,-17.99,135.48,-5010.73,-44.83,-8.68,19.24,5011.09
C3,M16_0000063#01,21792512,-23.94,135.29,-5010.73,-52.7,-20.13,9.75,5011.09
C4,M16_0000063#01,21792512,-4.05,156.56,-5573.19,-50.73,-3.49,46.08,5860.06
Cz,M16_0000063#01,21792512,-9.11,147.42,-5010.73,-50.02,-4.03,36.78,5011.09
T3,M16_0000063#01,21792512,-368.69,145.16,-5010.73,-418.85,-377.87,-327.58,5011.09
T4,M16_0000063#01,21792512,-22.28,162.38,-5010.73,-75.61,-15.48,38.57,3406.91
T5,M16_0000063#01,21792512,-23.55,144.58,-5010.73,-65.95,-18.16,24.79,5011.09
T6,M16_0000063#01,21792512,-3.18,180.07,-5231.56,-64.34,8.86,70.96,5011.09
P3,M16_0000063#01,21792512,-15.33,149.56,-5010.73,-61.47,-16.02,31.77,5011.09
P4,M16_0000063#01,21792512,130.01,1532.71,-5864.0,-254.93,0.27,187.1,5864.0
Pz,M16_0000063#01,21792512,-8.91,150.95,-5010.73,-51.81,-4.92,40.71,5011.09
O1,M16_0000063#01,21792512,-404.0,160.03,-5010.73,-478.44,-419.57,-341.0,5011.09
O2,M16_0000063#01,21792512,33.97,166.83,-5864.0,-14.59,38.21,93.33,5625.99
Fp1,M16_0000070#01,110211840,131.57,186.17,-5864.0,28.01,136.81,238.1,5864.0
Fp2,M16_0000070#01,110211840,334.76,130.19,-5864.0,307.36,351.2,380.2,5864.0
F3,M16_0000070#01,110211840,0.2,114.6,-5864.0,-19.24,-2.42,17.81,5864.0
F4,M16_0000070#01,110211840,0.18,127.53,-5864.0,-18.7,-1.16,17.99,5864.0
F7,M16_0000070#01,110211840,305.66,120.67,-5864.0,289.82,311.66,332.41,5864.0
F8,M16_0000070#01,110211840,227.28,131.18,-5864.0,185.85,229.51,272.28,5864.0
Fz,M16_0000070#01,110211840,-94.13,130.27,-5864.0,-118.02,-87.06,-56.82,5864.0
C3,M16_0000070#01,110211840,245.57,126.91,-5864.0,206.79,258.33,288.39,5864.0
C4,M16_0000070#01,110211840,146.91,125.28,-5864.0,110.33,148.27,173.32,5864.0
Cz,M16_0000070#01,110211840,248.97,127.31,-5864.0,217.52,261.19,290.18,5864.0
T3,M16_0000070#01,110211840,372.56,156.55,-5864.0,333.67,383.06,431.02,5864.0
T4,M16_0000070#01,110211840,-89.57,163.03,-5864.0,-142.36,-77.22,-51.09,5864.0
T5,M16_0000070#01,110211840,263.44,137.27,-5864.0,207.32,282.84,326.15,5864.0
T6,M16_0000070#01,110211840,-1075.02,138.75,-5864.0,-1120.54,-1067.93,-1021.76,5864.0
P3,M16_0000070#01,110211840,0.23,132.18,-5864.0,-12.8,-0.45,12.26,5864.0
P4,M16_0000070#01,110211840,-0.01,150.55,-5864.0,-35.7,-1.88,25.5,5864.0
Pz,M16_0000070#01,110211840,206.08,128.96,-5864.0,173.32,214.48,246.51,5864.0
O1,M16_0000070#01,110211840,118.48,128.79,-5864.0,84.56,127.69,165.27,5864.0
O2,M16_0000070#01,110211840,-134.02,133.92,-5864.0,-163.12,-119.99,-86.88,5864.0
Fp1,M16_0000099#01,17704192,86.77,73.02,-5010.73,69.35,86.17,102.63,880.92
Fp2,M16_0000099#01,17704192,62.95,75.15,-5010.73,39.1,64.16,87.24,764.96
F3,M16_0000099#01,17704192,29.75,76.65,-5010.73,-1.16,17.81,62.55,5011.09
F4,M16_0000099#01,17704192,90.37,73.81,-5010.73,76.68,91.36,106.03,788.58
F7,M16_0000099#01,17704192,90.69,73.45,-5010.73,76.68,90.82,105.32,788.04
F8,M16_0000099#01,17704192,-9.7,74.13,-5010.73,-30.33,-13.33,7.61,679.95
Fz,M16_0000099#01,17704192,11.69,75.06,-5010.73,-16.91,9.75,40.18,697.31
C3,M16_0000099#01,17704192,16.18,67.32,-5010.73,8.32,17.63,25.86,701.07
C4,M16_0000099#01,17704192,-378.33,99.81,-5010.73,-429.05,-405.61,-349.24,5011.09
Cz,M16_0000099#01,17704192,-26.91,71.73,-5010.73,-50.73,-26.75,-1.88,651.85
T3,M16_0000099#01,17704192,59.1,71.49,-5010.73,42.86,59.15,75.97,5011.09
T4,M16_0000099#01,17704192,76.76,75.36,-5010.73,59.32,78.12,96.91,783.39
T5,M16_0000099#01,17704192,75.17,71.36,-5010.73,60.58,76.33,91.72,771.76
T6,M16_0000099#01,17704192,37.81,79.06,-5010.73,10.47,30.33,59.68,721.29
P3,M16_0000099#01,17704192,52.56,74.52,-5010.73,32.66,50.91,72.93,750.46
P4,M16_0000099#01,17704192,70.86,71.77,-5010.73,57.0,71.31,86.71,913.85
Pz,M16_0000099#01,17704192,55.71,84.78,-5246.06,21.56,46.8,92.79,5011.09
O1,M16_0000099#01,17704192,46.27,744.88,-5864.0,-135.92,81.69,174.57,5864.0
O2,M16_0000099#01,17704192,59.0,79.46,-5010.73,33.55,55.39,85.09,2937.68
Fp1,M16_0000109#01,455936,-336.73,21.63,-546.63,-351.74,-337.6,-321.5,-226.83
Fp2,M16_0000109#01,455936,-376.6,20.34,-517.28,-390.4,-377.15,-362.48,-243.83
F3,M16_0000109#01,455936,5.07,30.78,-1352.65,-1.16,2.59,7.43,806.29
F4,M16_0000109#01,455936,4.0,98.37,-5246.95,-6.71,2.77,13.69,5578.03
F7,M16_0000109#01,455936,23.75,19.19,-151.31,14.41,23.18,32.12,158.29
F8,M16_0000109#01,455936,28.54,17.39,-111.04,18.34,28.72,38.92,146.12
Fz,M16_0000109#01,455936,-602.95,7.17,-687.29,-608.55,-602.82,-597.45,-559.33
C3,M16_0000109#01,455936,-501.75,25.27,-673.87,-522.29,-504.93,-481.66,-392.54
C4,M16_0000109#01,455936,-520.04,20.22,-679.06,-533.38,-519.96,-506.0,-393.62
Cz,M16_0000109#01,455936,-716.63,10.76,-825.98,-722.54,-716.28,-710.02,-615.35
T3,M16_0000109#01,455936,-557.7,23.71,-756.54,-570.61,-557.19,-543.58,-416.88
T4,M16_0000109#01,455936,14.41,18.65,-131.62,3.49,14.59,25.68,141.82
T5,M16_0000109#01,455936,-489.24,19.71,-676.19,-499.92,-488.82,-478.26,-370.71
T6,M16_0000109#01,455936,-484.79,19.0,-635.75,-495.98,-484.53,-473.07,-346.91
P3,M16_0000109#01,455936,5.38,52.53,-3001.75,-2.95,3.13,10.11,1955.74
P4,M16_0000109#01,455936,4.01,68.18,-3994.61,-2.24,2.24,7.43,1754.95
Pz,M16_0000109#01,455936,-488.92,13.68,-597.99,-497.06,-489.36,-481.13,-377.15
O1,M16_0000109#01,455936,22.11,17.33,-144.87,11.54,21.39,32.48,143.97
O2,M16_0000109#01,455936,-406.29,17.96,-569.89,-417.24,-406.5,-395.41,-278.01
Fp1,M16_0000110#01,16722432,-373.94,71.19,-5846.28,-387.71,-373.57,-358.18,3329.96
Fp2,M16_0000110#01,16722432,-307.35,69.67,-5852.37,-312.91,-305.93,-298.77,3385.79
F3,M16_0000110#01,16722432,-0.08,75.61,-5763.6,-3.67,0.09,3.49,5558.52
F4,M16_0000110#01,16722432,-0.05,120.95,-5820.33,-4.74,-0.09,4.74,5814.25
F7,M16_0000110#01,16722432,7.05,14.85,-5864.0,-0.63,5.1,12.62,3669.8
F8,M16_0000110#01,16722432,15.3,20.62,-5864.0,6.53,13.15,22.28,3660.31
Fz,M16_0000110#01,16722432,-573.88,79.59,-5864.0,-585.28,-567.74,-560.05,5636.19
C3,M16_0000110#01,16722432,-517.59,79.08,-5864.0,-532.67,-513.88,-499.74,5861.67
C4,M16_0000110#01,16722432,-523.76,79.62,-5864.0,-535.35,-519.07,-506.36,3207.91
Cz,M16_0000110#01,16722432,-708.28,76.77,-5864.0,-712.7,-706.08,-699.81,3009.09
T3,M16_0000110#01,16722432,-530.77,78.57,-5864.0,-538.93,-530.52,-522.11,3201.11
T4,M16_0000110#01,16722432,46.16,14.88,-5864.0,37.85,46.26,55.03,3694.32
T5,M16_0000110#01,16722432,-458.89,84.52,-5864.0,-480.59,-469.32,-447.48,3270.19
T6,M16_0000110#01,16722432,-377.07,87.96,-5833.04,-403.82,-378.23,-340.47,3352.33
P3,M16_0000110#01,16722432,-0.15,105.62,-5864.0,-6.0,0.27,6.89,5763.07
P4,M16_0000110#01,16722432,-0.2,129.35,-5864.0,-6.53,0.09,7.25,5572.84
Pz,M16_0000110#01,16722432,-431.58,79.28,-5837.69,-439.43,-426.01,-417.42,3290.59
O1,M16_0000110#01,16722432,45.82,12.49,-5864.0,39.46,45.19,51.63,3714.72
O2,M16_0000110#01,16722432,-394.46,74.13,-5864.0,-402.03,-395.23,-386.28,3305.98
Fp1,M16_0000112#01,7722752,37.23,336.7,-5864.0,22.1,38.39,43.93,5864.0
Fp2,M16_0000112#01,7722752,41.86,366.22,-5864.0,26.4,45.72,55.92,5864.0
F3,M16_0000112#01,7722752,-36.51,383.5,-5864.0,-71.85,-43.4,-4.74,5864.0
F4,M16_0000112#01,7722752,-449.5,507.73,-5864.0,-641.47,-602.1,-30.51,5864.0
F7,M16_0000112#01,7722752,-317.34,430.59,-5864.0,-475.58,-395.41,-30.33,5864.0
F8,M16_0000112#01,7722752,-82.97,391.38,-5864.0,-167.95,-74.18,-15.3,5864.0
Fz,M16_0000112#01,7722752,-69.78,399.89,-5864.0,-143.43,-55.21,-9.22,5864.0
C3,M16_0000112#01,7722752,-399.43,491.94,-5864.0,-572.4,-524.97,-37.13,5864.0
C4,M16_0000112#01,7722752,-428.78,515.46,-5864.0,-615.7,-577.59,-48.94,5864.0
Cz,M16_0000112#01,7722752,-297.94,450.22,-5864.0,-425.29,-385.03,-38.74,5864.0
T3,M16_0000112#01,7722752,-422.2,508.19,-5864.0,-674.58,-436.39,-35.52,5864.0
T4,M16_0000112#01,7722752,-15.13,377.42,-5864.0,-38.57,-19.6,3.49,5864.0
T5,M16_0000112#01,7722752,-622.49,601.74,-5864.0,-964.85,-764.78,-44.11,5864.0
T6,M16_0000112#01,7722752,-38.04,386.06,-5864.0,-82.77,-39.1,-2.77,5864.0
P3,M16_0000112#01,7722752,-238.78,439.17,-5864.0,-395.05,-284.1,-39.28,5864.0
P4,M16_0000112#01,7722752,-61.76,394.0,-5864.0,-138.6,-48.94,0.45,5864.0
Pz,M16_0000112#01,7722752,-64.27,369.12,-5864.0,-87.78,-33.38,6.17,5864.0
O1,M16_0000112#01,7722752,-439.86,521.29,-5864.0,-697.13,-516.56,-47.87,5864.0
O2,M16_0000112#01,7722752,-484.44,559.42,-5864.0,-821.68,-492.76,-57.0,5864.0
Fp1,M16_0000153#01,40414720,-428.19,143.95,-5864.0,-474.51,-441.76,-387.71,5864.0
Fp2,M16_0000153#01,40414720,-55.07,126.98,-5864.0,-59.5,-54.31,-48.59,5864.0
F3,M16_0000153#01,40414720,2.72,148.33,-5864.0,-4.21,-0.27,3.85,5864.0
F4,M16_0000153#01,40414720,2.08,230.48,-5864.0,-7.61,-0.09,7.61,5864.0
F7,M16_0000153#01,40414720,-150.92,133.4,-5864.0,-196.59,-169.38,-116.59,5864.0
F8,M16_0000153#01,40414720,-1009.18,172.89,-5864.0,-1056.48,-1023.73,-977.91,5864.0
Fz,M16_0000153#01,40414720,2.47,158.13,-5864.0,-6.17,-0.63,5.28,5864.0
C3,M16_0000153#01,40414720,-588.04,223.04,-5864.0,-581.34,-505.47,-480.05,5864.0
C4,M16_0000153#01,40414720,-220.65,132.53,-5864.0,-271.93,-253.14,-184.95,5864.0
Cz,M16_0000153#01,40414720,-278.61,153.2,-5864.0,-354.43,-313.62,-223.61,5864.0
T3,M16_0000153#01,40414720,-574.8,136.81,-5864.0,-601.57,-567.21,-543.94,5864.0
T4,M16_0000153#01,40414720,-1014.64,207.88,-5864.0,-1145.24,-1002.79,-903.65,5864.0
T5,M16_0000153#01,40414720,-251.11,149.18,-5864.0,-308.25,-282.66,-209.83,5864.0
T6,M16_0000153#01,40414720,-376.48,163.2,-5864.0,-437.82,-420.1,-353.71,5864.0
P3,M16_0000153#01,40414720,2.63,167.96,-5864.0,-15.3,-0.27,14.76,5864.0
P4,M16_0000153#01,40414720,2.02,155.29,-5864.0,-17.27,-0.45,16.37,5864.0
Pz,M16_0000153#01,40414720,-2.82,183.58,-5864.0,-8.32,-0.45,7.43,5864.0
O1,M16_0000153#01,40414720,-259.12,160.06,-5864.0,-326.51,-301.81,-193.18,5864.0
O2,M16_0000153#01,40414720,-697.93,219.82,-5864.0,-832.42,-728.98,-662.77,5864.0
Fp1,M16_0000168#01,58616064,38.63,90.09,-5712.78,12.62,43.22,64.51,5864.0
Fp2,M16_0000168#01,58616064,332.96,54.8,-5719.58,308.43,354.78,369.64,5864.0
F3,M16_0000168#01,58616064,46.33,154.38,-5864.0,-85.63,35.7,201.6,5864.0
F4,M16_0000168#01,58616064,-29.54,28.12,-5704.37,-39.1,-29.26,-19.95,5864.0
F7,M16_0000168#01,58616064,-33.85,171.98,-5864.0,-183.52,-54.67,131.09,5864.0
F8,M16_0000168#01,58616064,-4.99,93.83,-5864.0,-81.69,-9.22,76.33,5864.0
Fz,M16_0000168#01,58616064,66.47,50.93,-5707.41,38.39,69.53,82.05,5864.0
C3,M16_0000168#01,58616064,119.38,72.55,-5707.77,90.64,102.81,115.16,5864.0
C4,M16_0000168#01,58616064,-152.47,58.79,-5864.0,-196.94,-155.42,-103.17,5864.0
Cz,M16_0000168#01,58616064,-9.81,24.76,-5864.0,-22.28,-10.29,1.7,5864.0
T3,M16_0000168#01,58616064,55.57,54.67,-5864.0,16.55,51.81,98.87,5864.0
T4,M16_0000168#01,58616064,-36.89,33.05,-5713.14,-46.44,-35.88,-26.75,5864.0
T5,M16_0000168#01,58616064,65.64,75.34,-5864.0,16.73,55.03,108.9,5864.0
T6,M16_0000168#01,58616064,191.07,137.69,-5864.0,82.23,181.73,291.25,5864.0
P3,M16_0000168#01,58616064,235.82,68.93,-5864.0,202.85,254.93,285.89,5864.0
P4,M16_0000168#01,58616064,-102.47,30.99,-5721.55,-113.55,-103.71,-95.3,5864.0
Pz,M16_0000168#01,58616064,154.14,83.81,-5766.29,85.09,170.64,232.56,4237.27
O1,M16_0000168#01,58616064,38.5,257.61,-5864.0,-200.7,4.56,282.48,5864.0
O2,M16_0000168#01,58616064,65.0,260.8,-5864.0,-222.18,99.23,327.22,5864.0
Fp1,M16_0000175#01,386304,464.11,52.7,243.47,429.59,463.59,499.02,729.52
Fp2,M16_0000175#01,386304,-134.21,46.83,-355.68,-165.09,-134.49,-103.71,158.65
F3,M16_0000175#01,386304,-53.46,57.81,-581.34,-92.25,-55.03,-15.66,189.25
F4,M16_0000175#01,386304,-134.89,29.32,-259.94,-154.53,-134.13,-114.62,-16.37
F7,M16_0000175#01,386304,445.11,56.82,176.36,407.22,444.62,482.74,676.73
F8,M16_0000175#01,386304,7.51,46.96,-256.36,-23.89,7.96,39.64,273.72
Fz,M16_0000175#01,386304,-74.67,37.23,-339.57,-100.13,-74.54,-49.3,81.69
C3,M16_0000175#01,386304,-56.46,60.8,-305.39,-97.62,-57.18,-16.2,395.23
C4,M16_0000175#01,386304,-101.52,31.04,-237.75,-121.96,-101.56,-80.98,54.31
Cz,M16_0000175#01,386304,-6.6,38.33,-181.91,-33.73,-7.96,19.24,177.08
T3,M16_0000175#01,386304,-18.17,62.21,-283.56,-59.32,-17.99,23.35,345.12
T4,M16_0000175#01,386304,-72.3,55.4,-350.13,-109.25,-72.21,-35.52,153.81
T5,M16_0000175#01,386304,-29.73,78.54,-364.45,-81.34,-28.19,23.0,304.85
T6,M16_0000175#01,386304,-81.64,71.53,-427.8,-128.58,-80.44,-33.2,210.54
P3,M16_0000175#01,386304,-27.83,65.23,-316.31,-70.78,-26.4,16.02,245.26
P4,M16_0000175#01,386304,-180.2,70.14,-558.62,-225.93,-178.15,-132.52,96.37
Pz,M16_0000175#01,386304,45.4,69.73,-264.23,0.27,46.98,92.25,313.98
O1,M16_0000175#01,386304,32.42,87.92,-415.63,-23.18,36.24,91.89,380.02
O2,M16_0000175#01,386304,156.55,79.57,-241.32,105.14,157.93,209.65,562.91
Fp1,M16_0000176#01,23936256,234.78,87.48,-754.75,173.5,219.49,283.38,1763.0
Fp2,M16_0000176#01,23936256,-123.72,55.72,-792.34,-160.26,-128.22,-91.0,1352.65
F3,M16_0000176#01,23936256,-163.43,49.14,-1649.19,-194.08,-164.91,-133.23,1375.2
F4,M16_0000176#01,23936256,-206.34,32.09,-959.12,-226.29,-207.32,-186.03,1307.91
F7,M16_0000176#01,23936256,316.63,70.0,-965.21,268.71,307.72,360.15,1820.63
F8,M16_0000176#01,23936256,-63.48,43.41,-568.64,-90.46,-65.77,-37.49,1443.21
Fz,M16_0000176#01,23936256,-133.18,34.71,-948.21,-154.17,-133.77,-112.65,1403.3
C3,M16_0000176#01,23936256,-256.79,64.29,-2447.52,-295.37,-265.13,-225.22,1306.66
C4,M16_0000176#01,23936256,-101.17,31.04,-615.7,-119.1,-102.81,-84.74,1384.15
Cz,M16_0000176#01,23936256,-96.37,43.36,-657.76,-123.75,-101.74,-73.1,1639.88
T3,M16_0000176#01,23936256,-97.17,67.12,-1010.66,-133.41,-97.62,-61.47,1932.12
T4,M16_0000176#01,23936256,-147.24,70.66,-704.47,-196.23,-144.33,-97.98,1371.62
T5,M16_0000176#01,23936256,-173.56,77.2,-917.25,-218.06,-173.68,-128.4,1905.27
T6,M16_0000176#01,23936256,-114.14,104.44,-844.23,-174.57,-117.84,-47.16,1759.78
P3,M16_0000176#01,23936256,-111.18,55.15,-635.57,-143.43,-111.58,-78.65,1342.09
P4,M16_0000176#01,23936256,-239.1,62.01,-721.29,-274.97,-239.89,-203.21,2304.35
Pz,M16_0000176#01,23936256,-58.73,63.88,-588.86,-97.44,-59.32,-20.49,1829.93
O1,M16_0000176#01,23936256,-51.38,73.12,-536.25,-94.94,-50.38,-6.71,2447.87
O2,M16_0000176#01,23936256,-48.03,100.13,-687.47,-112.83,-63.26,12.62,2459.86
Fp1,M16_0000198#01,310016,835.2,278.64,-5055.11,845.13,868.21,889.69,3407.27
Fp2,M16_0000198#01,310016,890.58,288.29,-5053.86,906.69,927.27,947.13,3540.23
F3,M16_0000198#01,310016,960.81,301.8,-5053.14,971.65,999.93,1024.44,3831.04
F4,M16_0000198#01,310016,882.9,293.0,-5054.39,895.77,917.96,940.87,3569.4
F7,M16_0000198#01,310016,764.51,276.08,-5241.76,770.68,794.13,819.72,3217.93
F8,M16_0000198#01,310016,779.01,268.58,-5054.04,790.37,812.38,832.96,2964.53
Fz,M16_0000198#01,310016,900.41,293.3,-5054.75,907.58,931.74,955.72,3790.77
C3,M16_0000198#01,310016,1147.47,332.07,-5055.65,1171.73,1192.49,1215.03,4434.66
C4,M16_0000198#01,310016,1169.48,335.26,-5055.65,1194.45,1216.82,1237.58,4433.23
Cz,M16_0000198#01,310016,827.37,283.99,-5053.86,837.61,860.7,885.04,3360.02
T3,M16_0000198#01,310016,775.83,270.8,-5054.57,778.38,805.4,836.72,3162.99
T4,M16_0000198#01,310016,732.11,269.72,-5055.65,732.92,763.52,791.98,3069.57
T5,M16_0000198#01,310016,719.19,260.95,-5054.22,725.23,749.74,774.08,2959.16
T6,M16_0000198#01,310016,737.56,264.0,-5055.83,743.3,768.89,794.13,3004.61
P3,M16_0000198#01,310016,860.69,290.68,-5053.68,867.86,893.09,920.29,3521.08
P4,M16_0000198#01,310016,1157.02,334.23,-5054.04,1178.35,1202.86,1229.17,4485.85
Pz,M16_0000198#01,310016,819.48,277.09,-5053.5,827.23,852.64,877.52,3336.4
O1,M16_0000198#01,310016,774.81,272.51,-5053.86,779.45,805.04,832.78,3268.4
O2,M16_0000198#01,310016,1135.35,330.86,-5053.68,1154.55,1181.57,1207.52,4390.64
Fp1,M16_0000199#01,15123712,563.19,89.79,-4411.04,514.59,537.5,560.05,3081.39
Fp2,M16_0000199#01,15123712,708.96,83.14,-4240.67,656.86,686.03,713.24,1730.25
F3,M16_0000199#01,15123712,658.55,99.51,-4297.58,600.67,640.04,665.81,1859.64
F4,M16_0000199#01,15123712,539.95,132.54,-4431.08,456.07,476.65,595.48,1693.93
F7,M16_0000199#01,15123712,665.86,86.5,-4166.59,613.2,642.01,717.89,1432.29
F8,M16_0000199#01,15123712,628.24,68.54,-4326.57,584.57,614.09,637.54,1507.27
Fz,M16_0000199#01,15123712,601.08,121.78,-4373.28,529.09,543.94,640.94,1712.54
C3,M16_0000199#01,15123712,958.42,88.45,-3984.94,905.08,924.05,978.99,2398.84
C4,M16_0000199#01,15123712,995.08,99.44,-3990.49,931.92,952.32,1031.96,2505.86
Cz,M16_0000199#01,15123712,641.52,81.52,-4295.61,595.12,611.23,648.45,1569.01
T3,M16_0000199#01,15123712,584.98,76.91,-4328.9,539.29,564.88,596.02,1468.98
T4,M16_0000199#01,15123712,496.54,90.92,-4501.42,444.44,466.81,507.26,1424.41
T5,M16_0000199#01,15123712,701.22,73.19,-4187.17,643.44,694.45,762.45,2268.02
T6,M16_0000199#01,15123712,449.51,144.3,-4555.64,355.5,389.86,565.6,5511.27
P3,M16_0000199#01,15123712,686.69,68.6,-4276.11,640.4,678.88,705.36,1649.19
P4,M16_0000199#01,15123712,986.31,114.42,-4062.61,907.76,935.5,1049.32,2510.33
Pz,M16_0000199#01,15123712,608.9,88.89,-4374.36,552.17,582.42,626.8,1567.94
O1,M16_0000199#01,15123712,661.86,95.48,-4330.69,586.36,663.84,736.5,3763.75
O2,M16_0000199#01,15123712,973.4,140.57,-4085.7,870.18,912.24,1078.13,2888.11
Fp1,M16_0000231#01,407552,29.04,72.09,-236.31,-19.6,26.22,74.89,331.52
Fp2,M16_0000231#01,407552,27.73,64.73,-237.75,-16.2,25.86,69.53,312.37
F3,M16_0000231#01,407552,37.99,35.16,-121.6,14.05,37.13,61.11,193.36
F4,M16_0000231#01,407552,27.93,44.2,-144.15,-1.34,27.11,56.82,222.36
F7,M16_0000231#01,407552,30.65,57.71,-192.29,-7.78,29.8,68.81,275.86
F8,M16_0000231#01,407552,35.18,60.7,-250.81,-4.56,34.63,74.54,370.17
Fz,M16_0000231#01,407552,19.12,41.17,-149.34,-7.96,17.81,45.9,182.45
C3,M16_0000231#01,407552,30.72,46.49,-167.24,0.09,30.51,60.58,236.85
